 Calculated PSA for the frequency range: 
 Station:   UWOO
 Component: HHN
  0.1000000      Hz and    50.00000      Hz
         200 frequencies distributed logarithmically
 Oscillator damping is   5.000000     % of critical
  Freq.(Hz)       Period(s)      PSA(cm/s^2)  Smooth PSA(cm/s^2)
   50.00000      1.9999998E-02  0.7523046      0.7523046    
   48.46267      2.0634437E-02  0.7557470      0.7578732    
   46.97261      2.1289000E-02  0.7599993      0.7597356    
   45.52837      2.1964328E-02  0.7634605      0.7620433    
   44.12852      2.2661081E-02  0.7626703      0.7662156    
   42.77172      2.3379933E-02  0.7725161      0.7793321    
   41.45663      2.4121592E-02  0.8028098      0.8074610    
   40.18199      2.4886772E-02  0.8470571      0.8401909    
   38.94653      2.5676232E-02  0.8707060      0.8608811    
   37.74905      2.6490729E-02  0.8648801      0.8648653    
   36.58840      2.7331069E-02  0.8590100      0.8520381    
   35.46343      2.8198060E-02  0.8322240      0.8390235    
   34.37305      2.9092560E-02  0.8258365      0.8303410    
   33.31620      3.0015431E-02  0.8329625      0.8407286    
   32.29184      3.0967580E-02  0.8633869      0.8685358    
   31.29897      3.1949930E-02  0.9092582      0.9193174    
   30.33664      3.2963444E-02  0.9853072      0.9628157    
   29.40389      3.4009106E-02  0.9938818      0.9559298    
   28.49982      3.5087943E-02  0.8886006      0.9215397    
   27.62355      3.6201000E-02  0.8821368      0.8769298    
   26.77422      3.7349366E-02  0.8600520      0.8574358    
   25.95100      3.8534161E-02  0.8301185      0.8334716    
   25.15310      3.9756540E-02  0.8102443      0.8255438    
   24.37972      4.1017693E-02  0.8362687      0.8598766    
   23.63013      4.2318851E-02  0.8681192      0.8930953    
   22.90358      4.3661289E-02  0.9248739      0.9115191    
   22.19938      4.5046311E-02  0.9431192      0.9513291    
   21.51682      4.6475261E-02  0.9852138      0.9847062    
   20.85525      4.7949549E-02   1.035319       1.006607    
   20.21403      4.9470600E-02   1.035005       1.029426    
   19.59251      5.1039908E-02   1.034380       1.043555    
   18.99011      5.2658990E-02   1.057210       1.036399    
   18.40623      5.4329433E-02   1.055860       1.033059    
   17.84030      5.6052871E-02  0.9995381       1.022047    
   17.29177      5.7830978E-02   1.018307       1.009168    
   16.76011      5.9665482E-02  0.9793190       1.002785    
   16.24479      6.1558187E-02  0.9928136       1.007370    
   15.74532      6.3510932E-02   1.018734       1.016442    
   15.26120      6.5525629E-02   1.007996       1.030604    
   14.79198      6.7604221E-02   1.027051       1.055685    
   14.33717      6.9748759E-02   1.072739       1.070099    
   13.89635      7.1961328E-02   1.115575       1.095983    
   13.46909      7.4244082E-02   1.154891       1.138397    
   13.05496      7.6599240E-02   1.093710       1.219521    
   12.65356      7.9029121E-02   1.199922       1.353725    
   12.26451      8.1536077E-02   1.304888       1.407941    
   11.88742      8.4122561E-02   1.594924       1.459171    
   11.52192      8.6791091E-02   1.763325       1.519891    
   11.16766      8.9544266E-02   1.602567       1.523551    
   10.82429      9.2384785E-02   1.549299       1.583699    
   10.49148      9.5315412E-02   1.564733       1.634330    
   10.16891      9.8338999E-02   1.579471       1.693162    
   9.856246      0.1014585       1.552832       1.716129    
   9.553200      0.1046770       1.741249       1.754814    
   9.259472      0.1079975       1.760570       1.822580    
   8.974774      0.1114234       1.828618       1.897547    
   8.698831      0.1149580       1.988957       1.976297    
   8.431372      0.1186047       1.992996       2.045943    
   8.172135      0.1223670       1.989411       2.112156    
   7.920870      0.1262487       2.226966       2.142357    
   7.677330      0.1302536       2.314405       2.155550    
   7.441278      0.1343855       2.345327       2.136868    
   7.212485      0.1386485       2.394768       2.114747    
   6.990726      0.1430467       2.415214       2.113046    
   6.775784      0.1475844       2.347389       2.141217    
   6.567452      0.1522661       2.103661       2.199800    
   6.365525      0.1570962       1.918886       2.275655    
   6.169807      0.1620796       1.860993       2.340634    
   5.980107      0.1672211       1.880315       2.461972    
   5.796239      0.1725257       1.827169       2.510714    
   5.618024      0.1779985       1.965143       2.532666    
   5.445289      0.1836450       2.130960       2.582494    
   5.277865      0.1894706       2.397648       2.607951    
   5.115589      0.1954809       2.868153       2.654375    
   4.958302      0.2016820       3.364792       2.690704    
   4.805851      0.2080797       3.289093       2.737212    
   4.658087      0.2146804       3.266925       2.755921    
   4.514867      0.2214905       3.477084       2.712024    
   4.376050      0.2285166       3.173940       2.633805    
   4.241501      0.2357656       2.767955       2.614639    
   4.111090      0.2432445       2.831200       2.540201    
   3.984688      0.2509607       3.013580       2.420193    
   3.862172      0.2589217       3.066196       2.367880    
   3.743424      0.2671351       3.017354       2.244378    
   3.628326      0.2756092       2.866453       2.131170    
   3.516768      0.2843520       2.830244       2.050555    
   3.408639      0.2933722       2.849045       1.903755    
   3.303835      0.3026786       2.713421       1.770065    
   3.202253      0.3122801       2.277678       1.691201    
   3.103795      0.3221862       1.790172       1.567551    
   3.008364      0.3324066       1.507464       1.445740    
   2.915867      0.3429512       1.285847       1.389350    
   2.826214      0.3538303       1.386341       1.287035    
   2.739317      0.3650545       1.484860       1.202060    
   2.655093      0.3766347       1.308418       1.163036    
   2.573457      0.3885823       1.068707       1.087318    
   2.494333      0.4009089      0.8914939       1.044225    
   2.417640      0.4136265      0.7708070      0.9592319    
   2.343306      0.4267475      0.7343628      0.8875167    
   2.271257      0.4402848      0.6966195      0.8469452    
   2.201424      0.4542515      0.6162875      0.7670625    
   2.133738      0.4686611      0.5894369      0.7329172    
   2.068133      0.4835280      0.5303095      0.6525638    
   2.004544      0.4988664      0.5187694      0.5792239    
   1.942912      0.5146915      0.4925887      0.5469943    
   1.883174      0.5310184      0.5239078      0.4841787    
   1.825273      0.5478634      0.5245423      0.4479112    
   1.769152      0.5652427      0.4849166      0.3876036    
   1.714756      0.5831733      0.4527093      0.3575919    
   1.662033      0.6016726      0.3885858      0.3043988    
   1.610931      0.6207589      0.3654307      0.2708135    
   1.561401      0.6404505      0.3823467      0.2472436    
   1.513393      0.6607669      0.3989234      0.2472436    
   1.466861      0.6817277      0.3902073      0.2356819    
   1.421760      0.7033534      0.4148155      0.2356819    
   1.378046      0.7256652      0.3587187      0.2259582    
   1.335676      0.7486846      0.3166214      0.2259582    
   1.294608      0.7724344      0.3464308      0.2151135    
   1.254804      0.7969375      0.3945341      0.2151135    
   1.216223      0.8222179      0.4056558      0.2031347    
   1.178828      0.8483002      0.3984751      0.2031347    
   1.142583      0.8752099      0.4004454      0.1926082    
   1.107453      0.9029732      0.4136425      0.1926082    
   1.073402      0.9316174      0.4449643      0.1841842    
   1.040399      0.9611701      0.4500301      0.1841842    
   1.008410      0.9916603      0.4277547      0.1841842    
  0.9774047       1.023118      0.3942769      0.1773171    
  0.9473529       1.055573      0.3639525      0.1773171    
  0.9182250       1.089058      0.3491423      0.1773171    
  0.8899927       1.123605      0.3136817      0.1714986    
  0.8626285       1.159248      0.2694162      0.1714986    
  0.8361056       1.196021      0.2264513      0.1659257    
  0.8103982       1.233961      0.1942914      0.1659257    
  0.7854812       1.273105      0.1726619      0.1659257    
  0.7613303       1.313490      0.1603056      0.1606187    
  0.7379220       1.355157      0.1584626      0.1606187    
  0.7152334       1.398145      0.1586916      0.1606187    
  0.6932424       1.442497      0.1472239      0.1560160    
  0.6719276       1.488256      0.1296233      0.1560160    
  0.6512681       1.535466      0.1121939      0.1560160    
  0.6312438       1.584174      9.3830317E-02  0.1515934    
  0.6118352       1.634427      8.4417924E-02  0.1515934    
  0.5930234       1.686274      7.7555537E-02  0.1515934    
  0.5747899       1.739766      6.8554603E-02  0.1515934    
  0.5571171       1.794955      6.5865763E-02  0.1476891    
  0.5399877       1.851894      6.2553033E-02  0.1476891    
  0.5233849       1.910640      5.7539303E-02  0.1476891    
  0.5072926       1.971249      5.4903999E-02  0.1476891    
  0.4916950       2.033781      5.6015342E-02  0.1438236    
  0.4765771       2.098296      5.0711382E-02  0.1438236    
  0.4619240       2.164858      4.2561520E-02  0.1438236    
  0.4477214       2.233532      4.0455665E-02  0.1438236    
  0.4339555       2.304384      4.0950086E-02  0.1401524    
  0.4206128       2.377483      4.0818576E-02  0.1401524    
  0.4076804       2.452902      3.7177470E-02  0.1401524    
  0.3951457       2.530712      3.6799055E-02  0.1401524    
  0.3829963       2.610991      3.5017405E-02  0.1360699    
  0.3712204       2.693817      3.2593608E-02  0.1360699    
  0.3598067       2.779270      3.1215193E-02  0.1360699    
  0.3487439       2.867434      3.0194392E-02  0.1360699    
  0.3380212       2.958395      2.8703202E-02  0.1360699    
  0.3276282       3.052241      2.7284050E-02  0.1360699    
  0.3175547       3.149064      2.5937999E-02  0.1318928    
  0.3077910       3.248958      2.3975652E-02  0.1318928    
  0.2983274       3.352021      2.1287583E-02  0.1318928    
  0.2891549       3.458354      1.9193348E-02  0.1318928    
  0.2802644       3.568060      1.9678606E-02  0.1318928    
  0.2716472       3.681245      1.8295599E-02  0.1318928    
  0.2632950       3.798022      1.5705192E-02  0.1280556    
  0.2551996       3.918502      1.5973616E-02  0.1280556    
  0.2473530       4.042805      1.5742719E-02  0.1280556    
  0.2397478       4.171050      1.5148334E-02  0.1280556    
  0.2323764       4.303364      1.4291260E-02  0.1280556    
  0.2252316       4.439875      1.3265654E-02  0.1280556    
  0.2183065       4.580716      1.2085537E-02  0.1280556    
  0.2115943       4.726026      1.0655789E-02  0.1244880    
  0.2050885       4.875944      1.0498534E-02  0.1244880    
  0.1987827       5.030619      1.0425110E-02  0.1244880    
  0.1926708       5.190199      1.0085737E-02  0.1244880    
  0.1867469       5.354843      9.6219843E-03  0.1244880    
  0.1810050       5.524709      9.1522858E-03  0.1244880    
  0.1754397       5.699963      8.6872727E-03  0.1244880    
  0.1700456       5.880777      8.2100136E-03  0.1244880    
  0.1648172       6.067327      7.7343462E-03  0.1244880    
  0.1597497       6.259794      7.2438028E-03  0.1215535    
  0.1548379       6.458367      6.7055291E-03  0.1215535    
  0.1500772       6.663239      6.1928919E-03  0.1215535    
  0.1454628       6.874609      5.7416828E-03  0.1215535    
  0.1409903       7.092686      5.3380779E-03  0.1215535    
  0.1366553       7.317679      4.9563940E-03  0.1215535    
  0.1324537       7.549810      4.5939134E-03  0.1215535    
  0.1283812       7.789305      4.2718742E-03  0.1215535    
  0.1244339       8.036396      3.9673732E-03  0.1215535    
  0.1206080       8.291327      3.6669427E-03  0.1215535    
  0.1168997       8.554343      3.3744122E-03  0.1215535    
  0.1133054       8.825704      3.0982986E-03  0.1215535    
  0.1098217       9.105672      2.8377187E-03  0.1188134    
  0.1064450       9.394522      2.5909096E-03  0.1188134    
  0.1031722       9.692533      2.3575758E-03  0.1188134    
  0.1000000       10.00000      2.1376086E-03  0.1188134    
