 Calculated PSA for the frequency range: 
 Station:   PKRO
 Component: HHZ
  0.1000000      Hz and    50.00000      Hz
         200 frequencies distributed logarithmically
 Oscillator damping is   5.000000     % of critical
  Freq.(Hz)       Period(s)      PSA(cm/s^2)  Smooth PSA(cm/s^2)
   50.00000      1.9999998E-02   2.052268       2.052268    
   48.46267      2.0634437E-02   2.053215       2.053900    
   46.97261      2.1289000E-02   2.054585       2.055449    
   45.52837      2.1964328E-02   2.058548       2.060923    
   44.12852      2.2661081E-02   2.069636       2.071712    
   42.77172      2.3379933E-02   2.086954       2.084827    
   41.45663      2.4121592E-02   2.097891       2.091596    
   40.18199      2.4886772E-02   2.089943       2.090411    
   38.94653      2.5676232E-02   2.083400       2.083320    
   37.74905      2.6490729E-02   2.076617       2.078604    
   36.58840      2.7331069E-02   2.075794       2.077828    
   35.46343      2.8198060E-02   2.081074       2.078872    
   34.37305      2.9092560E-02   2.079749       2.077424    
   33.31620      3.0015431E-02   2.071450       2.072117    
   32.29184      3.0967580E-02   2.065152       2.070485    
   31.29897      3.1949930E-02   2.074852       2.075910    
   30.33664      3.2963444E-02   2.087726       2.083913    
   29.40389      3.4009106E-02   2.089161       2.090306    
   28.49982      3.5087943E-02   2.094031       2.104589    
   27.62355      3.6201000E-02   2.130574       2.139777    
   26.77422      3.7349366E-02   2.194726       2.181732    
   25.95100      3.8534161E-02   2.219896       2.208168    
   25.15310      3.9756540E-02   2.209881       2.232460    
   24.37972      4.1017693E-02   2.267602       2.284825    
   23.63013      4.2318851E-02   2.330501       2.300630    
   22.90358      4.3661289E-02   2.331315       2.285721    
   22.19938      4.5046311E-02   2.273102       2.286475    
   21.51682      4.6475261E-02   2.226082       2.284759    
   20.85525      4.7949549E-02   2.271372       2.281074    
   20.21403      4.9470600E-02   2.321924       2.288994    
   19.59251      5.1039908E-02   2.312891       2.304553    
   18.99011      5.2658990E-02   2.312699       2.311053    
   18.40623      5.4329433E-02   2.303879       2.316924    
   17.84030      5.6052871E-02   2.303870       2.331513    
   17.29177      5.7830978E-02   2.351280       2.346123    
   16.76011      5.9665482E-02   2.385835       2.358469    
   16.24479      6.1558187E-02   2.385750       2.353602    
   15.74532      6.3510932E-02   2.385511       2.346435    
   15.26120      6.5525629E-02   2.338565       2.351498    
   14.79198      6.7604221E-02   2.274669       2.382627    
   14.33717      6.9748759E-02   2.308279       2.447032    
   13.89635      7.1961328E-02   2.381880       2.538683    
   13.46909      7.4244082E-02   2.603738       2.676944    
   13.05496      7.6599240E-02   2.836581       2.821257    
   12.65356      7.9029121E-02   3.027074       2.919737    
   12.26451      8.1536077E-02   3.306384       2.976910    
   11.88742      8.4122561E-02   3.284865       3.031152    
   11.52192      8.6791091E-02   3.041808       3.085104    
   11.16766      8.9544266E-02   2.875568       3.130415    
   10.82429      9.2384785E-02   2.839260       3.242785    
   10.49148      9.5315412E-02   3.037679       3.403748    
   10.16891      9.8338999E-02   3.268194       3.902131    
   9.856246      0.1014585       3.492903       4.221895    
   9.553200      0.1046770       4.038406       4.514502    
   9.259472      0.1079975       4.755048       4.737904    
   8.974774      0.1114234       5.537633       4.884979    
   8.698831      0.1149580       6.134807       4.743866    
   8.431372      0.1186047       6.239454       4.818615    
   8.172135      0.1223670       5.801632       4.882945    
   7.920870      0.1262487       5.073280       4.944942    
   7.677330      0.1302536       4.508431       4.997157    
   7.441278      0.1343855       4.015928       5.114284    
   7.212485      0.1386485       4.060686       5.197848    
   6.990726      0.1430467       4.165172       5.211075    
   6.775784      0.1475844       4.264864       5.381245    
   6.567452      0.1522661       4.782366       5.492051    
   6.365525      0.1570962       5.381628       5.690999    
   6.169807      0.1620796       5.875507       5.956822    
   5.980107      0.1672211       6.181944       6.168553    
   5.796239      0.1725257       6.284179       6.375262    
   5.618024      0.1779985       6.319974       6.638985    
   5.445289      0.1836450       6.866159       6.925927    
   5.277865      0.1894706       7.136929       7.006296    
   5.115589      0.1954809       7.463722       7.258149    
   4.958302      0.2016820       8.057493       7.331008    
   4.805851      0.2080797       8.495792       7.314490    
   4.658087      0.2146804       8.290201       7.095437    
   4.514867      0.2214905       7.222866       6.981694    
   4.376050      0.2285166       7.529974       6.767534    
   4.241501      0.2357656       8.543976       6.641104    
   4.111090      0.2432445       8.384072       6.374386    
   3.984688      0.2509607       7.585044       6.132987    
   3.862172      0.2589217       8.452920       5.973604    
   3.743424      0.2671351       8.592050       5.662239    
   3.628326      0.2756092       7.716193       5.407821    
   3.516768      0.2843520       6.239558       5.206109    
   3.408639      0.2933722       5.051248       4.854967    
   3.303835      0.3026786       4.124833       4.513511    
   3.202253      0.3122801       4.465030       4.310495    
   3.103795      0.3221862       4.593083       3.996696    
   3.008364      0.3324066       4.472426       3.723085    
   2.915867      0.3429512       3.765544       3.562984    
   2.826214      0.3538303       3.376295       3.309541    
   2.739317      0.3650545       3.273281       3.034067    
   2.655093      0.3766347       3.286569       2.905649    
   2.573457      0.3885823       3.280992       2.652922    
   2.494333      0.4009089       3.191416       2.495139    
   2.417640      0.4136265       2.722188       2.246730    
   2.343306      0.4267475       2.392960       2.034694    
   2.271257      0.4402848       2.310731       1.927713    
   2.201424      0.4542515       2.159204       1.702909    
   2.133738      0.4686611       1.787148       1.620052    
   2.068133      0.4835280       1.614060       1.415200    
   2.004544      0.4988664       1.352825       1.253056    
   1.942912      0.5146915       1.376516       1.181877    
   1.883174      0.5310184       1.392240       1.060993    
   1.825273      0.5478634       1.373399      0.9806301    
   1.769152      0.5652427       1.257406      0.8716469    
   1.714756      0.5831733       1.070098      0.8049154    
   1.662033      0.6016726      0.9839678      0.6925777    
   1.610931      0.6207589      0.9475307      0.6159780    
   1.561401      0.6404505      0.8525301      0.5576001    
   1.513393      0.6607669      0.7906768      0.5576001    
   1.466861      0.6817277      0.7682677      0.5216842    
   1.421760      0.7033534      0.7541603      0.5216842    
   1.378046      0.7256652      0.7555888      0.4916485    
   1.335676      0.7486846      0.7065278      0.4916485    
   1.294608      0.7724344      0.6056848      0.4646892    
   1.254804      0.7969375      0.5043334      0.4646892    
   1.216223      0.8222179      0.4317012      0.4381930    
   1.178828      0.8483002      0.3713188      0.4381930    
   1.142583      0.8752099      0.3509026      0.4110656    
   1.107453      0.9029732      0.3242916      0.4110656    
   1.073402      0.9316174      0.2999425      0.3834702    
   1.040399      0.9611701      0.2829488      0.3834702    
   1.008410      0.9916603      0.2756371      0.3834702    
  0.9774047       1.023118      0.3016578      0.3562086    
  0.9473529       1.055573      0.3059187      0.3562086    
  0.9182250       1.089058      0.2925352      0.3562086    
  0.8899927       1.123605      0.2725130      0.3330127    
  0.8626285       1.159248      0.2493920      0.3330127    
  0.8361056       1.196021      0.2253473      0.3126172    
  0.8103982       1.233961      0.2246010      0.3126172    
  0.7854812       1.273105      0.1980774      0.3126172    
  0.7613303       1.313490      0.1845080      0.2926360    
  0.7379220       1.355157      0.1803752      0.2926360    
  0.7152334       1.398145      0.1680093      0.2926360    
  0.6932424       1.442497      0.1564763      0.2737818    
  0.6719276       1.488256      0.1598716      0.2737818    
  0.6512681       1.535466      0.1523737      0.2737818    
  0.6312438       1.584174      0.1356853      0.2583393    
  0.6118352       1.634427      0.1178609      0.2583393    
  0.5930234       1.686274      0.1132163      0.2583393    
  0.5747899       1.739766      0.1233309      0.2583393    
  0.5571171       1.794955      0.1233882      0.2443628    
  0.5399877       1.851894      0.1143917      0.2443628    
  0.5233849       1.910640      0.1024972      0.2443628    
  0.5072926       1.971249      9.1937743E-02  0.2443628    
  0.4916950       2.033781      8.5497618E-02  0.2328163    
  0.4765771       2.098296      7.9974934E-02  0.2328163    
  0.4619240       2.164858      7.5509146E-02  0.2328163    
  0.4477214       2.233532      7.3424608E-02  0.2328163    
  0.4339555       2.304384      6.9350205E-02  0.2207774    
  0.4206128       2.377483      6.9802217E-02  0.2207774    
  0.4076804       2.452902      6.1733104E-02  0.2207774    
  0.3951457       2.530712      5.5036496E-02  0.2207774    
  0.3829963       2.610991      5.2225895E-02  0.2083150    
  0.3712204       2.693817      5.3251706E-02  0.2083150    
  0.3598067       2.779270      5.4359030E-02  0.2083150    
  0.3487439       2.867434      5.8154110E-02  0.2083150    
  0.3380212       2.958395      5.9859846E-02  0.2083150    
  0.3276282       3.052241      6.0854714E-02  0.2083150    
  0.3175547       3.149064      5.9382405E-02  0.1957872    
  0.3077910       3.248958      5.5244710E-02  0.1957872    
  0.2983274       3.352021      5.0132766E-02  0.1957872    
  0.2891549       3.458354      4.6442345E-02  0.1957872    
  0.2802644       3.568060      4.7043387E-02  0.1957872    
  0.2716472       3.681245      5.1084563E-02  0.1957872    
  0.2632950       3.798022      5.4402582E-02  0.1842479    
  0.2551996       3.918502      5.2245397E-02  0.1842479    
  0.2473530       4.042805      4.8248988E-02  0.1842479    
  0.2397478       4.171050      4.2867906E-02  0.1842479    
  0.2323764       4.303364      3.7449934E-02  0.1842479    
  0.2252316       4.439875      3.1779811E-02  0.1842479    
  0.2183065       4.580716      2.8891670E-02  0.1842479    
  0.2115943       4.726026      2.8478097E-02  0.1745133    
  0.2050885       4.875944      2.9025661E-02  0.1745133    
  0.1987827       5.030619      2.9708544E-02  0.1745133    
  0.1926708       5.190199      2.9703170E-02  0.1745133    
  0.1867469       5.354843      2.8123604E-02  0.1745133    
  0.1810050       5.524709      2.4779473E-02  0.1745133    
  0.1754397       5.699963      2.2261536E-02  0.1745133    
  0.1700456       5.880777      2.1186946E-02  0.1745133    
  0.1648172       6.067327      1.8997075E-02  0.1745133    
  0.1597497       6.259794      1.6334206E-02  0.1655193    
  0.1548379       6.458367      1.3990490E-02  0.1655193    
  0.1500772       6.663239      1.2193428E-02  0.1655193    
  0.1454628       6.874609      1.0896376E-02  0.1655193    
  0.1409903       7.092686      9.9563003E-03  0.1655193    
  0.1366553       7.317679      9.1748387E-03  0.1655193    
  0.1324537       7.549810      8.4383776E-03  0.1655193    
  0.1283812       7.789305      7.7628735E-03  0.1655193    
  0.1244339       8.036396      7.1945386E-03  0.1655193    
  0.1206080       8.291327      6.7149694E-03  0.1655193    
  0.1168997       8.554343      6.2714089E-03  0.1655193    
  0.1133054       8.825704      5.8433367E-03  0.1655193    
  0.1098217       9.105672      5.3786295E-03  0.1567327    
  0.1064450       9.394522      4.8820553E-03  0.1567327    
  0.1031722       9.692533      4.6956153E-03  0.1567327    
  0.1000000       10.00000      4.4885566E-03  0.1567327    
