 Calculated PSA for the frequency range: 
 Station:   GAC 
 Component: BHE
  0.1000000      Hz and    50.00000      Hz
         200 frequencies distributed logarithmically
 Oscillator damping is   5.000000     % of critical
  Freq.(Hz)       Period(s)      PSA(cm/s^2)  Smooth PSA(cm/s^2)
   50.00000      1.9999998E-02   1.398217       1.398217    
   48.46267      2.0634437E-02   1.396149       1.409294    
   46.97261      2.1289000E-02   1.422440       1.409757    
   45.52837      2.1964328E-02   1.410681       1.410092    
   44.12852      2.2661081E-02   1.397154       1.398136    
   42.77172      2.3379933E-02   1.386571       1.395280    
   41.45663      2.4121592E-02   1.402117       1.405363    
   40.18199      2.4886772E-02   1.427402       1.427869    
   38.94653      2.5676232E-02   1.454088       1.452614    
   37.74905      2.6490729E-02   1.476352       1.468748    
   36.58840      2.7331069E-02   1.475804       1.465890    
   35.46343      2.8198060E-02   1.445514       1.452841    
   34.37305      2.9092560E-02   1.437205       1.441797    
   33.31620      3.0015431E-02   1.442670       1.451343    
   32.29184      3.0967580E-02   1.474153       1.468393    
   31.29897      3.1949930E-02   1.488355       1.491751    
   30.33664      3.2963444E-02   1.512745       1.506745    
   29.40389      3.4009106E-02   1.519136       1.509430    
   28.49982      3.5087943E-02   1.496408       1.517490    
   27.62355      3.6201000E-02   1.536927       1.553088    
   26.77422      3.7349366E-02   1.625930       1.589103    
   25.95100      3.8534161E-02   1.604451       1.593149    
   25.15310      3.9756540E-02   1.549065       1.541859    
   24.37972      4.1017693E-02   1.472060       1.450948    
   23.63013      4.2318851E-02   1.403531       1.404376    
   22.90358      4.3661289E-02   1.379138       1.401661    
   22.19938      4.5046311E-02   1.362775       1.389582    
   21.51682      4.6475261E-02   1.390802       1.390558    
   20.85525      4.7949549E-02   1.411663       1.395373    
   20.21403      4.9470600E-02   1.408414       1.406917    
   19.59251      5.1039908E-02   1.403210       1.417251    
   18.99011      5.2658990E-02   1.420497       1.429268    
   18.40623      5.4329433E-02   1.442471       1.462777    
   17.84030      5.6052871E-02   1.471747       1.533065    
   17.29177      5.7830978E-02   1.575958       1.639764    
   16.76011      5.9665482E-02   1.754652       1.848000    
   16.24479      6.1558187E-02   1.953990       2.023751    
   15.74532      6.3510932E-02   2.118948       2.180629    
   15.26120      6.5525629E-02   2.212705       2.202811    
   14.79198      6.7604221E-02   2.526256       2.277282    
   14.33717      6.9748759E-02   2.517221       2.334375    
   13.89635      7.1961328E-02   2.335909       2.384108    
   13.46909      7.4244082E-02   2.275945       2.414214    
   13.05496      7.6599240E-02   2.353643       2.400664    
   12.65356      7.9029121E-02   2.467080       2.392542    
   12.26451      8.1536077E-02   2.423446       2.405493    
   11.88742      8.4122561E-02   2.431407       2.436144    
   11.52192      8.6791091E-02   2.534784       2.436275    
   11.16766      8.9544266E-02   2.318124       2.467503    
   10.82429      9.2384785E-02   2.439519       2.468419    
   10.49148      9.5315412E-02   2.521151       2.477738    
   10.16891      9.8338999E-02   2.354694       2.554654    
   9.856246      0.1014585       2.717322       2.610067    
   9.553200      0.1046770       2.475327       2.716372    
   9.259472      0.1079975       2.507315       2.818873    
   8.974774      0.1114234       2.803631       2.956989    
   8.698831      0.1149580       2.874671       3.111596    
   8.431372      0.1186047       3.088914       3.267287    
   8.172135      0.1223670       3.381172       3.489393    
   7.920870      0.1262487       3.464533       3.774230    
   7.677330      0.1302536       3.902313       4.031910    
   7.441278      0.1343855       3.960647       4.367596    
   7.212485      0.1386485       3.808615       4.468693    
   6.990726      0.1430467       4.222988       4.615334    
   6.775784      0.1475844       5.382596       4.608242    
   6.567452      0.1522661       5.893363       4.600021    
   6.365525      0.1570962       5.599477       4.579184    
   6.169807      0.1620796       5.495999       4.537621    
   5.980107      0.1672211       5.703460       4.428089    
   5.796239      0.1725257       5.782948       4.455238    
   5.618024      0.1779985       4.927639       4.517941    
   5.445289      0.1836450       4.063073       4.588404    
   5.277865      0.1894706       3.534800       4.597009    
   5.115589      0.1954809       3.257869       4.533089    
   4.958302      0.2016820       3.151967       4.437304    
   4.805851      0.2080797       3.278882       4.346829    
   4.658087      0.2146804       3.274887       4.175412    
   4.514867      0.2214905       3.938307       4.091619    
   4.376050      0.2285166       4.422178       3.825725    
   4.241501      0.2357656       4.874551       3.648694    
   4.111090      0.2432445       4.939709       3.448554    
   3.984688      0.2509607       5.069566       3.353506    
   3.862172      0.2589217       4.751892       3.286983    
   3.743424      0.2671351       4.455127       3.162347    
   3.628326      0.2756092       4.246078       3.044763    
   3.516768      0.2843520       3.977660       2.977026    
   3.408639      0.2933722       3.789987       2.850354    
   3.303835      0.3026786       3.384840       2.735513    
   3.202253      0.3122801       2.858244       2.652688    
   3.103795      0.3221862       2.331954       2.554041    
   3.008364      0.3324066       1.948095       2.437889    
   2.915867      0.3429512       1.731427       2.364891    
   2.826214      0.3538303       1.711232       2.255986    
   2.739317      0.3650545       1.815301       2.135158    
   2.655093      0.3766347       1.957670       2.075094    
   2.573457      0.3885823       2.037330       1.948646    
   2.494333      0.4009089       2.388524       1.875152    
   2.417640      0.4136265       2.333470       1.727145    
   2.343306      0.4267475       1.862496       1.616257    
   2.271257      0.4402848       1.594125       1.568671    
   2.201424      0.4542515       1.508140       1.471363    
   2.133738      0.4686611       1.406622       1.428528    
   2.068133      0.4835280       1.293490       1.315768    
   2.004544      0.4988664       1.172495       1.204466    
   1.942912      0.5146915       1.156350       1.142726    
   1.883174      0.5310184       1.234723       1.046593    
   1.825273      0.5478634       1.334424      0.9730327    
   1.769152      0.5652427       1.383451      0.8762563    
   1.714756      0.5831733       1.354355      0.8093303    
   1.662033      0.6016726       1.286474      0.7137562    
   1.610931      0.6207589       1.287120      0.6350307    
   1.561401      0.6404505       1.245262      0.5967297    
   1.513393      0.6607669       1.181748      0.5967297    
   1.466861      0.6817277       1.082504      0.5843318    
   1.421760      0.7033534       1.092350      0.5843318    
   1.378046      0.7256652       1.273548      0.5737106    
   1.335676      0.7486846       1.375131      0.5737106    
   1.294608      0.7724344       1.295914      0.5630795    
   1.254804      0.7969375       1.122346      0.5630795    
   1.216223      0.8222179      0.9338458      0.5512661    
   1.178828      0.8483002      0.8738538      0.5512661    
   1.142583      0.8752099      0.8639973      0.5378718    
   1.107453      0.9029732      0.8400007      0.5378718    
   1.073402      0.9316174      0.8460184      0.5234540    
   1.040399      0.9611701      0.8688350      0.5234540    
   1.008410      0.9916603      0.8238394      0.5234540    
  0.9774047       1.023118      0.7135560      0.5053465    
  0.9473529       1.055573      0.5958002      0.5053465    
  0.9182250       1.089058      0.5541784      0.5053465    
  0.8899927       1.123605      0.5232482      0.4874237    
  0.8626285       1.159248      0.6331583      0.4874237    
  0.8361056       1.196021      0.7412724      0.4738092    
  0.8103982       1.233961      0.8181379      0.4738092    
  0.7854812       1.273105      0.8624910      0.4738092    
  0.7613303       1.313490      0.8633698      0.4626060    
  0.7379220       1.355157      0.8211994      0.4626060    
  0.7152334       1.398145      0.7505818      0.4626060    
  0.6932424       1.442497      0.6802133      0.4520451    
  0.6719276       1.488256      0.6801132      0.4520451    
  0.6512681       1.535466      0.6549827      0.4520451    
  0.6312438       1.584174      0.6037424      0.4423045    
  0.6118352       1.634427      0.5143985      0.4423045    
  0.5930234       1.686274      0.4228620      0.4423045    
  0.5747899       1.739766      0.3377979      0.4423045    
  0.5571171       1.794955      0.2827131      0.4335294    
  0.5399877       1.851894      0.2661368      0.4335294    
  0.5233849       1.910640      0.2455389      0.4335294    
  0.5072926       1.971249      0.2298971      0.4335294    
  0.4916950       2.033781      0.2116829      0.4258318    
  0.4765771       2.098296      0.1972656      0.4258318    
  0.4619240       2.164858      0.1776517      0.4258318    
  0.4477214       2.233532      0.1563994      0.4258318    
  0.4339555       2.304384      0.1419483      0.4181421    
  0.4206128       2.377483      0.1497732      0.4181421    
  0.4076804       2.452902      0.1486678      0.4181421    
  0.3951457       2.530712      0.1446084      0.4181421    
  0.3829963       2.610991      0.1396066      0.4094551    
  0.3712204       2.693817      0.1352794      0.4094551    
  0.3598067       2.779270      0.1309732      0.4094551    
  0.3487439       2.867434      0.1231302      0.4094551    
  0.3380212       2.958395      0.1182897      0.4094551    
  0.3276282       3.052241      0.1152462      0.4094551    
  0.3175547       3.149064      0.1077908      0.3995092    
  0.3077910       3.248958      9.6313678E-02  0.3995092    
  0.2983274       3.352021      8.7325238E-02  0.3995092    
  0.2891549       3.458354      8.1386253E-02  0.3995092    
  0.2802644       3.568060      7.3370896E-02  0.3995092    
  0.2716472       3.681245      6.1707601E-02  0.3995092    
  0.2632950       3.798022      5.0368812E-02  0.3888142    
  0.2551996       3.918502      4.5021743E-02  0.3888142    
  0.2473530       4.042805      4.3325305E-02  0.3888142    
  0.2397478       4.171050      4.3582968E-02  0.3888142    
  0.2323764       4.303364      4.4351052E-02  0.3888142    
  0.2252316       4.439875      4.3609161E-02  0.3888142    
  0.2183065       4.580716      4.0973570E-02  0.3888142    
  0.2115943       4.726026      3.7409168E-02  0.3782039    
  0.2050885       4.875944      3.4400187E-02  0.3782039    
  0.1987827       5.030619      3.2123536E-02  0.3782039    
  0.1926708       5.190199      3.0315697E-02  0.3782039    
  0.1867469       5.354843      2.8500693E-02  0.3782039    
  0.1810050       5.524709      2.6277967E-02  0.3782039    
  0.1754397       5.699963      2.3584463E-02  0.3782039    
  0.1700456       5.880777      2.1341179E-02  0.3782039    
  0.1648172       6.067327      1.9395841E-02  0.3782039    
  0.1597497       6.259794      1.7443221E-02  0.3681120    
  0.1548379       6.458367      1.5673053E-02  0.3681120    
  0.1500772       6.663239      1.4219620E-02  0.3681120    
  0.1454628       6.874609      1.3120035E-02  0.3681120    
  0.1409903       7.092686      1.2324979E-02  0.3681120    
  0.1366553       7.317679      1.1685492E-02  0.3681120    
  0.1324537       7.549810      1.1111199E-02  0.3681120    
  0.1283812       7.789305      1.0548106E-02  0.3681120    
  0.1244339       8.036396      9.9319136E-03  0.3681120    
  0.1206080       8.291327      9.2332885E-03  0.3681120    
  0.1168997       8.554343      8.4700612E-03  0.3681120    
  0.1133054       8.825704      7.6825954E-03  0.3681120    
  0.1098217       9.105672      6.9179037E-03  0.3577861    
  0.1064450       9.394522      6.2263221E-03  0.3577861    
  0.1031722       9.692533      5.6383093E-03  0.3577861    
  0.1000000       10.00000      5.1570511E-03  0.3577861    
