 Calculated PSA for the frequency range: 
 Station:   EEO 
 Component: EHZ
  0.1000000      Hz and    50.00000      Hz
         200 frequencies distributed logarithmically
 Oscillator damping is   5.000000     % of critical
  Freq.(Hz)       Period(s)      PSA(cm/s^2)  Smooth PSA(cm/s^2)
   50.00000      1.9999998E-02  0.2078053      0.2078053    
   48.46267      2.0634437E-02  0.2080054      0.2081064    
   46.97261      2.1289000E-02  0.2082074      0.2082104    
   45.52837      2.1964328E-02  0.2084185      0.2084174    
   44.12852      2.2661081E-02  0.2086264      0.2086277    
   42.77172      2.3379933E-02  0.2088383      0.2089518    
   41.45663      2.4121592E-02  0.2093906      0.2095418    
   40.18199      2.4886772E-02  0.2103965      0.2103654    
   38.94653      2.5676232E-02  0.2113092      0.2109628    
   37.74905      2.6490729E-02  0.2111828      0.2106269    
   36.58840      2.7331069E-02  0.2093887      0.2093894    
   35.46343      2.8198060E-02  0.2075967      0.2087281    
   34.37305      2.9092560E-02  0.2091990      0.2090313    
   33.31620      3.0015431E-02  0.2102981      0.2088605    
   32.29184      3.0967580E-02  0.2070844      0.2082928    
   31.29897      3.1949930E-02  0.2074959      0.2084321    
   30.33664      3.2963444E-02  0.2107161      0.2099544    
   29.40389      3.4009106E-02  0.2116513      0.2129139    
   28.49982      3.5087943E-02  0.2163744      0.2152642    
   27.62355      3.6201000E-02  0.2177669      0.2178014    
   26.77422      3.7349366E-02  0.2192630      0.2192193    
   25.95100      3.8534161E-02  0.2206281      0.2216780    
   25.15310      3.9756540E-02  0.2251430      0.2258640    
   24.37972      4.1017693E-02  0.2318211      0.2279521    
   23.63013      4.2318851E-02  0.2283201      0.2315816    
   22.90358      4.3661289E-02  0.2265245      0.2373710    
   22.19938      4.5046311E-02  0.2396607      0.2459747    
   21.51682      4.6475261E-02  0.2605288      0.2548973    
   20.85525      4.7949549E-02  0.2748393      0.2666537    
   20.21403      4.9470600E-02  0.2729331      0.2720535    
   19.59251      5.1039908E-02  0.2853068      0.2689564    
   18.99011      5.2658990E-02  0.2666596      0.2602905    
   18.40623      5.4329433E-02  0.2450432      0.2535844    
   17.84030      5.6052871E-02  0.2315099      0.2461436    
   17.29177      5.7830978E-02  0.2394022      0.2477107    
   16.76011      5.9665482E-02  0.2481032      0.2572432    
   16.24479      6.1558187E-02  0.2744950      0.2662339    
   15.74532      6.3510932E-02  0.2756904      0.2776564    
   15.26120      6.5525629E-02  0.2742583      0.2852146    
   14.79198      6.7604221E-02  0.2854541      0.2974069    
   14.33717      6.9748759E-02  0.3079373      0.3065574    
   13.89635      7.1961328E-02  0.3305640      0.3119670    
   13.46909      7.4244082E-02  0.3334492      0.3175450    
   13.05496      7.6599240E-02  0.3385486      0.3241893    
   12.65356      7.9029121E-02  0.3135575      0.3328649    
   12.26451      8.1536077E-02  0.3133045      0.3376280    
   11.88742      8.4122561E-02  0.3319640      0.3396285    
   11.52192      8.6791091E-02  0.3387555      0.3477620    
   11.16766      8.9544266E-02  0.3627759      0.3540082    
   10.82429      9.2384785E-02  0.3686689      0.3624619    
   10.49148      9.5315412E-02  0.3494527      0.3710554    
   10.16891      9.8338999E-02  0.4036175      0.3874840    
   9.856246      0.1014585      0.4039779      0.3993572    
   9.553200      0.1046770      0.3896405      0.4119952    
   9.259472      0.1079975      0.3906459      0.4298000    
   8.974774      0.1114234      0.4185417      0.4539501    
   8.698831      0.1149580      0.4487642      0.4771766    
   8.431372      0.1186047      0.4574870      0.4908919    
   8.172135      0.1223670      0.4891561      0.5037037    
   7.920870      0.1262487      0.5467165      0.5171643    
   7.677330      0.1302536      0.5909541      0.5314890    
   7.441278      0.1343855      0.6057965      0.5486584    
   7.212485      0.1386485      0.5808221      0.5477753    
   6.990726      0.1430467      0.5682008      0.5534968    
   6.775784      0.1475844      0.5577187      0.5612413    
   6.567452      0.1522661      0.5511672      0.5687593    
   6.365525      0.1570962      0.5625415      0.5709486    
   6.169807      0.1620796      0.5915369      0.5734621    
   5.980107      0.1672211      0.5816972      0.5785615    
   5.796239      0.1725257      0.5362947      0.5836327    
   5.618024      0.1779985      0.5288658      0.5886576    
   5.445289      0.1836450      0.5528758      0.6045051    
   5.277865      0.1894706      0.5742760      0.6126491    
   5.115589      0.1954809      0.6019258      0.6255578    
   4.958302      0.2016820      0.5795564      0.6331693    
   4.805851      0.2080797      0.6286564      0.6390738    
   4.658087      0.2146804      0.5965752      0.6452308    
   4.514867      0.2214905      0.6370396      0.6466405    
   4.376050      0.2285166      0.6920055      0.6420907    
   4.241501      0.2357656      0.6662437      0.6402401    
   4.111090      0.2432445      0.6904981      0.6310579    
   3.984688      0.2509607      0.7516159      0.6256943    
   3.862172      0.2589217      0.7592409      0.6252008    
   3.743424      0.2671351      0.7358567      0.6174136    
   3.628326      0.2756092      0.6926849      0.6035773    
   3.516768      0.2843520      0.7033992      0.5991043    
   3.408639      0.2933722      0.6806325      0.5943287    
   3.303835      0.3026786      0.6762927      0.5895420    
   3.202253      0.3122801      0.6836137      0.5846390    
   3.103795      0.3221862      0.6762462      0.5755583    
   3.008364      0.3324066      0.5936692      0.5655947    
   2.915867      0.3429512      0.5300233      0.5547354    
   2.826214      0.3538303      0.4937308      0.5362327    
   2.739317      0.3650545      0.4640600      0.5172238    
   2.655093      0.3766347      0.4846732      0.5030654    
   2.573457      0.3885823      0.5575593      0.4846075    
   2.494333      0.4009089      0.5651001      0.4659125    
   2.417640      0.4136265      0.5400446      0.4395349    
   2.343306      0.4267475      0.5194619      0.4192229    
   2.271257      0.4402848      0.4697607      0.4010019    
   2.201424      0.4542515      0.4031870      0.3784947    
   2.133738      0.4686611      0.4303905      0.3642917    
   2.068133      0.4835280      0.4722081      0.3407117    
   2.004544      0.4988664      0.5051059      0.3166182    
   1.942912      0.5146915      0.5302859      0.2997126    
   1.883174      0.5310184      0.5319800      0.2785669    
   1.825273      0.5478634      0.5426146      0.2583579    
   1.769152      0.5652427      0.5253171      0.2356583    
   1.714756      0.5831733      0.4919665      0.2185544    
   1.662033      0.6016726      0.4469441      0.1944235    
   1.610931      0.6207589      0.4255312      0.1734831    
   1.561401      0.6404505      0.4352102      0.1627141    
   1.513393      0.6607669      0.4286597      0.1627141    
   1.466861      0.6817277      0.3906621      0.1587604    
   1.421760      0.7033534      0.3387319      0.1587604    
   1.378046      0.7256652      0.2944895      0.1553228    
   1.335676      0.7486846      0.2491516      0.1553228    
   1.294608      0.7724344      0.2412676      0.1521601    
   1.254804      0.7969375      0.2198610      0.1521601    
   1.216223      0.8222179      0.2292763      0.1492177    
   1.178828      0.8483002      0.2246762      0.1492177    
   1.142583      0.8752099      0.2116375      0.1460228    
   1.107453      0.9029732      0.2066940      0.1460228    
   1.073402      0.9316174      0.2109105      0.1420657    
   1.040399      0.9611701      0.2092856      0.1420657    
   1.008410      0.9916603      0.1923535      0.1420657    
  0.9774047       1.023118      0.1702015      0.1379586    
  0.9473529       1.055573      0.1458732      0.1379586    
  0.9182250       1.089058      0.1276208      0.1379586    
  0.8899927       1.123605      0.1147059      0.1340166    
  0.8626285       1.159248      0.1090918      0.1340166    
  0.8361056       1.196021      0.1082042      0.1302003    
  0.8103982       1.233961      0.1089203      0.1302003    
  0.7854812       1.273105      0.1112744      0.1302003    
  0.7613303       1.313490      0.1170730      0.1268047    
  0.7379220       1.355157      0.1144770      0.1268047    
  0.7152334       1.398145      0.1134298      0.1268047    
  0.6932424       1.442497      0.1075518      0.1240130    
  0.6719276       1.488256      0.1134418      0.1240130    
  0.6512681       1.535466      0.1191198      0.1240130    
  0.6312438       1.584174      0.1153887      0.1208867    
  0.6118352       1.634427      0.1052095      0.1208867    
  0.5930234       1.686274      9.3077622E-02  0.1208867    
  0.5747899       1.739766      8.0667801E-02  0.1208867    
  0.5571171       1.794955      6.9897063E-02  0.1172648    
  0.5399877       1.851894      6.0913272E-02  0.1172648    
  0.5233849       1.910640      5.3444203E-02  0.1172648    
  0.5072926       1.971249      4.7481548E-02  0.1172648    
  0.4916950       2.033781      4.1746601E-02  0.1132248    
  0.4765771       2.098296      3.6807839E-02  0.1132248    
  0.4619240       2.164858      3.6263280E-02  0.1132248    
  0.4477214       2.233532      3.5885662E-02  0.1132248    
  0.4339555       2.304384      3.4009114E-02  0.1088347    
  0.4206128       2.377483      3.0953426E-02  0.1088347    
  0.4076804       2.452902      2.8106736E-02  0.1088347    
  0.3951457       2.530712      2.7643342E-02  0.1088347    
  0.3829963       2.610991      3.0587198E-02  0.1043331    
  0.3712204       2.693817      2.8907740E-02  0.1043331    
  0.3598067       2.779270      2.4733284E-02  0.1043331    
  0.3487439       2.867434      2.2378555E-02  0.1043331    
  0.3380212       2.958395      2.3680067E-02  0.1043331    
  0.3276282       3.052241      2.5436908E-02  0.1043331    
  0.3175547       3.149064      2.6241533E-02  9.9620432E-02
  0.3077910       3.248958      2.4340604E-02  9.9620432E-02
  0.2983274       3.352021      2.3417447E-02  9.9620432E-02
  0.2891549       3.458354      2.4030069E-02  9.9620432E-02
  0.2802644       3.568060      2.5986869E-02  9.9620432E-02
  0.2716472       3.681245      2.8103909E-02  9.9620432E-02
  0.2632950       3.798022      2.8798576E-02  9.4993293E-02
  0.2551996       3.918502      2.7829580E-02  9.4993293E-02
  0.2473530       4.042805      2.5363382E-02  9.4993293E-02
  0.2397478       4.171050      2.2366026E-02  9.4993293E-02
  0.2323764       4.303364      1.9966591E-02  9.4993293E-02
  0.2252316       4.439875      1.8713797E-02  9.4993293E-02
  0.2183065       4.580716      1.8527713E-02  9.4993293E-02
  0.2115943       4.726026      1.9082820E-02  9.0630949E-02
  0.2050885       4.875944      1.9132880E-02  9.0630949E-02
  0.1987827       5.030619      1.8535621E-02  9.0630949E-02
  0.1926708       5.190199      1.7356286E-02  9.0630949E-02
  0.1867469       5.354843      1.5903680E-02  9.0630949E-02
  0.1810050       5.524709      1.4244416E-02  9.0630949E-02
  0.1754397       5.699963      1.2726558E-02  9.0630949E-02
  0.1700456       5.880777      1.1618748E-02  9.0630949E-02
  0.1648172       6.067327      1.1014206E-02  9.0630949E-02
  0.1597497       6.259794      1.0837660E-02  8.6671919E-02
  0.1548379       6.458367      1.0501971E-02  8.6671919E-02
  0.1500772       6.663239      9.6911229E-03  8.6671919E-02
  0.1454628       6.874609      9.4277412E-03  8.6671919E-02
  0.1409903       7.092686      8.9817457E-03  8.6671919E-02
  0.1366553       7.317679      8.3679324E-03  8.6671919E-02
  0.1324537       7.549810      7.6547400E-03  8.6671919E-02
  0.1283812       7.789305      6.9130319E-03  8.6671919E-02
  0.1244339       8.036396      6.1227828E-03  8.6671919E-02
  0.1206080       8.291327      5.3372183E-03  8.6671919E-02
  0.1168997       8.554343      4.6153804E-03  8.6671919E-02
  0.1133054       8.825704      4.0016156E-03  8.6671919E-02
  0.1098217       9.105672      3.5065440E-03  8.2864508E-02
  0.1064450       9.394522      3.1277414E-03  8.2864508E-02
  0.1031722       9.692533      2.8509165E-03  8.2864508E-02
  0.1000000       10.00000      2.6293972E-03  8.2864508E-02
