 Calculated PSA for the frequency range: 
 Station:   WLVO
 Component: HHE
  0.1000000      Hz and    50.00000      Hz
         200 frequencies distributed logarithmically
 Oscillator damping is   5.000000     % of critical
  Freq.(Hz)       Period(s)      PSA(cm/s^2)  Smooth PSA(cm/s^2)
   50.00000      1.9999998E-02   1.428533       1.428533    
   48.46267      2.0634437E-02   1.433017       1.435016    
   46.97261      2.1289000E-02   1.437014       1.436695    
   45.52837      2.1964328E-02   1.440053       1.440008    
   44.12852      2.2661081E-02   1.442955       1.443365    
   42.77172      2.3379933E-02   1.447086       1.448018    
   41.45663      2.4121592E-02   1.454012       1.460343    
   40.18199      2.4886772E-02   1.479932       1.485105    
   38.94653      2.5676232E-02   1.521371       1.525666    
   37.74905      2.6490729E-02   1.575696       1.573274    
   36.58840      2.7331069E-02   1.622755       1.616733    
   35.46343      2.8198060E-02   1.651749       1.643095    
   34.37305      2.9092560E-02   1.654782       1.661921    
   33.31620      3.0015431E-02   1.679230       1.678457    
   32.29184      3.0967580E-02   1.701360       1.696999    
   31.29897      3.1949930E-02   1.710406       1.709332    
   30.33664      3.2963444E-02   1.716231       1.728235    
   29.40389      3.4009106E-02   1.758067       1.762893    
   28.49982      3.5087943E-02   1.814380       1.813121    
   27.62355      3.6201000E-02   1.866917       1.860903    
   26.77422      3.7349366E-02   1.901413       1.901786    
   25.95100      3.8534161E-02   1.937028       1.920644    
   25.15310      3.9756540E-02   1.923491       1.909093    
   24.37972      4.1017693E-02   1.866759       1.983814    
   23.63013      4.2318851E-02   2.004771       2.069569    
   22.90358      4.3661289E-02   2.140236       2.131848    
   22.19938      4.5046311E-02   2.266508       2.286002    
   21.51682      4.6475261E-02   2.380963       2.433294    
   20.85525      4.7949549E-02   2.637532       2.636693    
   20.21403      4.9470600E-02   2.741229       2.863686    
   19.59251      5.1039908E-02   3.157231       3.077852    
   18.99011      5.2658990E-02   3.401474       3.386748    
   18.40623      5.4329433E-02   3.451792       3.809118    
   17.84030      5.6052871E-02   4.182012       4.242956    
   17.29177      5.7830978E-02   4.853083       4.686921    
   16.76011      5.9665482E-02   5.326418       5.177190    
   16.24479      6.1558187E-02   5.621304       5.184909    
   15.74532      6.3510932E-02   6.091054       5.006148    
   15.26120      6.5525629E-02   4.989270       4.713457    
   14.79198      6.7604221E-02   4.228327       4.386182    
   14.33717      6.9748759E-02   3.780514       4.002682    
   13.89635      7.1961328E-02   2.957309       3.631344    
   13.46909      7.4244082E-02   3.035496       3.487060    
   13.05496      7.6599240E-02   2.936803       3.414981    
   12.65356      7.9029121E-02   3.491691       3.511510    
   12.26451      8.1536077E-02   3.979278       3.586708    
   11.88742      8.4122561E-02   3.723779       3.566169    
   11.52192      8.6791091E-02   4.053205       3.512088    
   11.16766      8.9544266E-02   3.914518       3.414640    
   10.82429      9.2384785E-02   3.558898       3.322476    
   10.49148      9.5315412E-02   2.871176       3.195719    
   10.16891      9.8338999E-02   2.504157       3.135546    
   9.856246      0.1014585       2.635060       3.057529    
   9.553200      0.1046770       2.662210       2.974496    
   9.259472      0.1079975       2.838464       2.915995    
   8.974774      0.1114234       3.006517       2.932321    
   8.698831      0.1149580       3.311253       2.936329    
   8.431372      0.1186047       3.273036       2.954452    
   8.172135      0.1223670       3.084186       2.930359    
   7.920870      0.1262487       2.973895       2.890671    
   7.677330      0.1302536       3.034435       2.830652    
   7.441278      0.1343855       3.035678       2.705389    
   7.212485      0.1386485       2.877059       2.688557    
   6.990726      0.1430467       2.721633       2.620102    
   6.775784      0.1475844       2.345935       2.553111    
   6.567452      0.1522661       2.185961       2.518630    
   6.365525      0.1570962       2.118242       2.509437    
   6.169807      0.1620796       1.903516       2.489930    
   5.980107      0.1672211       2.305222       2.516336    
   5.796239      0.1725257       2.469738       2.489952    
   5.618024      0.1779985       2.352885       2.477652    
   5.445289      0.1836450       2.518004       2.506631    
   5.277865      0.1894706       2.370265       2.514607    
   5.115589      0.1954809       2.566969       2.521752    
   4.958302      0.2016820       2.836000       2.521299    
   4.805851      0.2080797       2.741835       2.502550    
   4.658087      0.2146804       2.747676       2.420901    
   4.514867      0.2214905       2.681099       2.365202    
   4.376050      0.2285166       2.587146       2.251425    
   4.241501      0.2357656       2.667949       2.187164    
   4.111090      0.2432445       2.899661       2.098009    
   3.984688      0.2509607       2.821249       2.008979    
   3.862172      0.2589217       2.658180       1.938559    
   3.743424      0.2671351       2.536508       1.824620    
   3.628326      0.2756092       2.466936       1.731987    
   3.516768      0.2843520       2.176889       1.659112    
   3.408639      0.2933722       1.743270       1.543423    
   3.303835      0.3026786       1.439395       1.436812    
   3.202253      0.3122801       1.252030       1.372868    
   3.103795      0.3221862       1.195533       1.272364    
   3.008364      0.3324066       1.094494       1.180885    
   2.915867      0.3429512      0.9590465       1.139317    
   2.826214      0.3538303      0.9917490       1.059284    
   2.739317      0.3650545       1.179772      0.9822204    
   2.655093      0.3766347       1.220545      0.9500555    
   2.573457      0.3885823       1.070533      0.8708797    
   2.494333      0.4009089      0.8107148      0.8285838    
   2.417640      0.4136265      0.6870824      0.7460179    
   2.343306      0.4267475      0.6490644      0.6829206    
   2.271257      0.4402848      0.5834064      0.6515962    
   2.201424      0.4542515      0.5114491      0.5850317    
   2.133738      0.4686611      0.4514430      0.5584244    
   2.068133      0.4835280      0.4535832      0.4935895    
   2.004544      0.4988664      0.4993421      0.4387228    
   1.942912      0.5146915      0.5251114      0.4153268    
   1.883174      0.5310184      0.4947758      0.3744143    
   1.825273      0.5478634      0.4855199      0.3473339    
   1.769152      0.5652427      0.4122646      0.3101297    
   1.714756      0.5831733      0.3512261      0.2872421    
   1.662033      0.6016726      0.3454248      0.2512397    
   1.610931      0.6207589      0.3579887      0.2239396    
   1.561401      0.6404505      0.3779159      0.2070715    
   1.513393      0.6607669      0.3737867      0.2070715    
   1.466861      0.6817277      0.4232768      0.1989300    
   1.421760      0.7033534      0.4004579      0.1989300    
   1.378046      0.7256652      0.3433391      0.1918919    
   1.335676      0.7486846      0.3418830      0.1918919    
   1.294608      0.7724344      0.3591060      0.1844166    
   1.254804      0.7969375      0.3626393      0.1844166    
   1.216223      0.8222179      0.3387265      0.1750265    
   1.178828      0.8483002      0.3069566      0.1750265    
   1.142583      0.8752099      0.2669380      0.1650691    
   1.107453      0.9029732      0.2573930      0.1650691    
   1.073402      0.9316174      0.2464383      0.1563628    
   1.040399      0.9611701      0.2364852      0.1563628    
   1.008410      0.9916603      0.2263988      0.1563628    
  0.9774047       1.023118      0.2110533      0.1500098    
  0.9473529       1.055573      0.2038685      0.1500098    
  0.9182250       1.089058      0.1829029      0.1500098    
  0.8899927       1.123605      0.1825049      0.1447444    
  0.8626285       1.159248      0.1930204      0.1447444    
  0.8361056       1.196021      0.1802551      0.1397511    
  0.8103982       1.233961      0.1506236      0.1397511    
  0.7854812       1.273105      0.1203367      0.1397511    
  0.7613303       1.313490      0.1037150      0.1353146    
  0.7379220       1.355157      0.1023998      0.1353146    
  0.7152334       1.398145      0.1056711      0.1353146    
  0.6932424       1.442497      9.8810509E-02  0.1315152    
  0.6719276       1.488256      8.5256532E-02  0.1315152    
  0.6512681       1.535466      8.1014350E-02  0.1315152    
  0.6312438       1.584174      7.6277427E-02  0.1282507    
  0.6118352       1.634427      7.6043360E-02  0.1282507    
  0.5930234       1.686274      8.1571005E-02  0.1282507    
  0.5747899       1.739766      8.3060287E-02  0.1282507    
  0.5571171       1.794955      7.7529706E-02  0.1248967    
  0.5399877       1.851894      6.7901514E-02  0.1248967    
  0.5233849       1.910640      5.4374952E-02  0.1248967    
  0.5072926       1.971249      5.6116339E-02  0.1248967    
  0.4916950       2.033781      5.3577732E-02  0.1209963    
  0.4765771       2.098296      5.4279692E-02  0.1209963    
  0.4619240       2.164858      5.2527778E-02  0.1209963    
  0.4477214       2.233532      5.0371420E-02  0.1209963    
  0.4339555       2.304384      4.5868151E-02  0.1167424    
  0.4206128       2.377483      4.2066451E-02  0.1167424    
  0.4076804       2.452902      4.0598158E-02  0.1167424    
  0.3951457       2.530712      3.7751969E-02  0.1167424    
  0.3829963       2.610991      3.5820372E-02  0.1127208    
  0.3712204       2.693817      3.6934659E-02  0.1127208    
  0.3598067       2.779270      3.7074756E-02  0.1127208    
  0.3487439       2.867434      3.7093434E-02  0.1127208    
  0.3380212       2.958395      3.5219423E-02  0.1127208    
  0.3276282       3.052241      3.3314914E-02  0.1127208    
  0.3175547       3.149064      3.3028744E-02  0.1087122    
  0.3077910       3.248958      3.3792045E-02  0.1087122    
  0.2983274       3.352021      3.4645759E-02  0.1087122    
  0.2891549       3.458354      3.4236770E-02  0.1087122    
  0.2802644       3.568060      3.2969262E-02  0.1087122    
  0.2716472       3.681245      3.1053845E-02  0.1087122    
  0.2632950       3.798022      2.9847035E-02  0.1054127    
  0.2551996       3.918502      2.8725151E-02  0.1054127    
  0.2473530       4.042805      2.7591253E-02  0.1054127    
  0.2397478       4.171050      2.5987945E-02  0.1054127    
  0.2323764       4.303364      2.4131594E-02  0.1054127    
  0.2252316       4.439875      2.2262078E-02  0.1054127    
  0.2183065       4.580716      2.1139750E-02  0.1054127    
  0.2115943       4.726026      1.9672381E-02  0.1027115    
  0.2050885       4.875944      1.7747384E-02  0.1027115    
  0.1987827       5.030619      1.5909085E-02  0.1027115    
  0.1926708       5.190199      1.4662666E-02  0.1027115    
  0.1867469       5.354843      1.3775828E-02  0.1027115    
  0.1810050       5.524709      1.3088923E-02  0.1027115    
  0.1754397       5.699963      1.2451645E-02  0.1027115    
  0.1700456       5.880777      1.1701229E-02  0.1027115    
  0.1648172       6.067327      1.0736405E-02  0.1027115    
  0.1597497       6.259794      1.0525489E-02  0.1000147    
  0.1548379       6.458367      1.0301307E-02  0.1000147    
  0.1500772       6.663239      9.9750245E-03  0.1000147    
  0.1454628       6.874609      9.5283529E-03  0.1000147    
  0.1409903       7.092686      8.9976043E-03  0.1000147    
  0.1366553       7.317679      8.4307343E-03  0.1000147    
  0.1324537       7.549810      7.8223618E-03  0.1000147    
  0.1283812       7.789305      7.1489024E-03  0.1000147    
  0.1244339       8.036396      6.4161755E-03  0.1000147    
  0.1206080       8.291327      5.6441696E-03  0.1000147    
  0.1168997       8.554343      4.8570833E-03  0.1000147    
  0.1133054       8.825704      4.1156127E-03  0.1000147    
  0.1098217       9.105672      3.5007123E-03  9.7116075E-02
  0.1064450       9.394522      3.0565392E-03  9.7116075E-02
  0.1031722       9.692533      2.7683463E-03  9.7116075E-02
  0.1000000       10.00000      2.5370785E-03  9.7116075E-02
