 Calculated PSA for the frequency range: 
 Station:   LMQ 
 Component: BHN
  0.1000000      Hz and    50.00000      Hz
         200 frequencies distributed logarithmically
 Oscillator damping is   5.000000     % of critical
  Freq.(Hz)       Period(s)      PSA(cm/s^2)  Smooth PSA(cm/s^2)
   50.00000      1.9999998E-02  0.4245313      0.4245313    
   48.46267      2.0634437E-02  0.4184291      0.4196565    
   46.97261      2.1289000E-02  0.4208838      0.4214913    
   45.52837      2.1964328E-02  0.4251609      0.4250464    
   44.12852      2.2661081E-02  0.4290945      0.4296628    
   42.77172      2.3379933E-02  0.4347332      0.4354337    
   41.45663      2.4121592E-02  0.4424735      0.4430291    
   40.18199      2.4886772E-02  0.4518807      0.4520156    
   38.94653      2.5676232E-02  0.4616928      0.4614567    
   37.74905      2.6490729E-02  0.4707966      0.4701807    
   36.58840      2.7331069E-02  0.4780527      0.4776126    
   35.46343      2.8198060E-02  0.4839886      0.4835764    
   34.37305      2.9092560E-02  0.4886880      0.4933523    
   33.31620      3.0015431E-02  0.5073802      0.5154855    
   32.29184      3.0967580E-02  0.5503881      0.5472000    
   31.29897      3.1949930E-02  0.5838319      0.5814611    
   30.33664      3.2963444E-02  0.6101633      0.6233153    
   29.40389      3.4009106E-02  0.6759505      0.6628716    
   28.49982      3.5087943E-02  0.7025009      0.6620703    
   27.62355      3.6201000E-02  0.6077595      0.5916253    
   26.77422      3.7349366E-02  0.4646153      0.4945116    
   25.95100      3.8534161E-02  0.4111600      0.4227104    
   25.15310      3.9756540E-02  0.3923561      0.3973337    
   24.37972      4.1017693E-02  0.3884851      0.3928680    
   23.63013      4.2318851E-02  0.3955044      0.3952610    
   22.90358      4.3661289E-02  0.3951265      0.3988840    
   22.19938      4.5046311E-02  0.4019282      0.4068998    
   21.51682      4.6475261E-02  0.4133760      0.4168145    
   20.85525      4.7949549E-02  0.4285637      0.4301603    
   20.21403      4.9470600E-02  0.4450778      0.4457189    
   19.59251      5.1039908E-02  0.4618560      0.4622411    
   18.99011      5.2658990E-02  0.4797211      0.4783403    
   18.40623      5.4329433E-02  0.4959866      0.4942919    
   17.84030      5.6052871E-02  0.5090599      0.5077251    
   17.29177      5.7830978E-02  0.5248358      0.5192713    
   16.76011      5.9665482E-02  0.5290222      0.5526279    
   16.24479      6.1558187E-02  0.5374515      0.5821593    
   15.74532      6.3510932E-02  0.5827866      0.6332062    
   15.26120      6.5525629E-02  0.6326109      0.6806741    
   14.79198      6.7604221E-02  0.6862488      0.7796809    
   14.33717      6.9748759E-02  0.8311168      0.9310910    
   13.89635      7.1961328E-02  0.9654822       1.108553    
   13.46909      7.4244082E-02   1.222070       1.316404    
   13.05496      7.6599240E-02   1.597322       1.507001    
   12.65356      7.9029121E-02   1.825018       1.612197    
   12.26451      8.1536077E-02   2.087566       1.656606    
   11.88742      8.4122561E-02   2.020434       1.658889    
   11.52192      8.6791091E-02   1.670709       1.635355    
   11.16766      8.9544266E-02   1.508979       1.617326    
   10.82429      9.2384785E-02   1.320751       1.559837    
   10.49148      9.5315412E-02   1.240333       1.462615    
   10.16891      9.8338999E-02   1.409054       1.352549    
   9.856246      0.1014585       1.473095       1.297710    
   9.553200      0.1046770       1.307609       1.262521    
   9.259472      0.1079975       1.212568       1.261472    
   8.974774      0.1114234       1.162917       1.260776    
   8.698831      0.1149580       1.219471       1.234707    
   8.431372      0.1186047       1.122325       1.202250    
   8.172135      0.1223670       1.157084       1.163333    
   7.920870      0.1262487       1.310262       1.142174    
   7.677330      0.1302536       1.233372       1.119651    
   7.441278      0.1343855       1.137752       1.070338    
   7.212485      0.1386485       1.070980       1.058315    
   6.990726      0.1430467       1.019560       1.051338    
   6.775784      0.1475844       1.006093       1.072292    
   6.567452      0.1522661       1.053707       1.078081    
   6.365525      0.1570962      0.9422937       1.084019    
   6.169807      0.1620796      0.8401377       1.093545    
   5.980107      0.1672211      0.8013500       1.109741    
   5.796239      0.1725257      0.9020215       1.118231    
   5.618024      0.1779985       1.121793       1.130996    
   5.445289      0.1836450       1.228565       1.149004    
   5.277865      0.1894706       1.259413       1.158830    
   5.115589      0.1954809       1.243913       1.189791    
   4.958302      0.2016820       1.399337       1.194418    
   4.805851      0.2080797       1.376264       1.197637    
   4.658087      0.2146804       1.258068       1.190995    
   4.514867      0.2214905       1.204350       1.174612    
   4.376050      0.2285166       1.282077       1.154287    
   4.241501      0.2357656       1.287990       1.146706    
   4.111090      0.2432445       1.279722       1.101159    
   3.984688      0.2509607       1.194968       1.050391    
   3.862172      0.2589217       1.335707       1.018940    
   3.743424      0.2671351       1.425130      0.9624331    
   3.628326      0.2756092       1.359014      0.9192671    
   3.516768      0.2843520       1.146248      0.8853050    
   3.408639      0.2933722       1.006676      0.8232097    
   3.303835      0.3026786      0.9407030      0.7679479    
   3.202253      0.3122801      0.9575919      0.7355185    
   3.103795      0.3221862      0.8305561      0.6879488    
   3.008364      0.3324066      0.7617308      0.6448225    
   2.915867      0.3429512      0.7467740      0.6211656    
   2.826214      0.3538303      0.7276542      0.5853812    
   2.739317      0.3650545      0.6462731      0.5498366    
   2.655093      0.3766347      0.5290878      0.5330647    
   2.573457      0.3885823      0.4484111      0.4986863    
   2.494333      0.4009089      0.4339403      0.4745468    
   2.417640      0.4136265      0.4108445      0.4373432    
   2.343306      0.4267475      0.3988959      0.4044021    
   2.271257      0.4402848      0.3537650      0.3861319    
   2.201424      0.4542515      0.3531104      0.3499739    
   2.133738      0.4686611      0.3199425      0.3357911    
   2.068133      0.4835280      0.2590132      0.3006542    
   2.004544      0.4988664      0.2227021      0.2711381    
   1.942912      0.5146915      0.1990784      0.2570376    
   1.883174      0.5310184      0.2318264      0.2332833    
   1.825273      0.5478634      0.2545296      0.2167984    
   1.769152      0.5652427      0.2574770      0.1930531    
   1.714756      0.5831733      0.2082503      0.1787220    
   1.662033      0.6016726      0.1917751      0.1544115    
   1.610931      0.6207589      0.1844440      0.1375051    
   1.561401      0.6404505      0.1857297      0.1262766    
   1.513393      0.6607669      0.1971471      0.1262766    
   1.466861      0.6817277      0.2017116      0.1204467    
   1.421760      0.7033534      0.2126282      0.1204467    
   1.378046      0.7256652      0.2603630      0.1146474    
   1.335676      0.7486846      0.2830712      0.1146474    
   1.294608      0.7724344      0.2653001      0.1089183    
   1.254804      0.7969375      0.2218349      0.1089183    
   1.216223      0.8222179      0.2032791      0.1038490    
   1.178828      0.8483002      0.2087474      0.1038490    
   1.142583      0.8752099      0.2016159      9.9799067E-02
   1.107453      0.9029732      0.1672787      9.9799067E-02
   1.073402      0.9316174      0.1409323      9.6447028E-02
   1.040399      0.9611701      0.1324248      9.6447028E-02
   1.008410      0.9916603      0.1364239      9.6447028E-02
  0.9774047       1.023118      0.1427890      9.3170397E-02
  0.9473529       1.055573      0.1370575      9.3170397E-02
  0.9182250       1.089058      0.1156469      9.3170397E-02
  0.8899927       1.123605      9.9460438E-02  9.0055943E-02
  0.8626285       1.159248      9.2414945E-02  9.0055943E-02
  0.8361056       1.196021      9.2806414E-02  8.6998120E-02
  0.8103982       1.233961      9.3659557E-02  8.6998120E-02
  0.7854812       1.273105      9.4957344E-02  8.6998120E-02
  0.7613303       1.313490      9.3950726E-02  8.4330447E-02
  0.7379220       1.355157      9.1025770E-02  8.4330447E-02
  0.7152334       1.398145      9.6046962E-02  8.4330447E-02
  0.6932424       1.442497      8.8798039E-02  8.1615493E-02
  0.6719276       1.488256      8.2867950E-02  8.1615493E-02
  0.6512681       1.535466      8.4018610E-02  8.1615493E-02
  0.6312438       1.584174      8.4287465E-02  7.9183586E-02
  0.6118352       1.634427      7.3898718E-02  7.9183586E-02
  0.5930234       1.686274      7.0754230E-02  7.9183586E-02
  0.5747899       1.739766      6.4368129E-02  7.9183586E-02
  0.5571171       1.794955      5.5766568E-02  7.7329673E-02
  0.5399877       1.851894      5.9758902E-02  7.7329673E-02
  0.5233849       1.910640      5.2577674E-02  7.7329673E-02
  0.5072926       1.971249      5.0107356E-02  7.7329673E-02
  0.4916950       2.033781      4.1809633E-02  7.5815380E-02
  0.4765771       2.098296      3.9122686E-02  7.5815380E-02
  0.4619240       2.164858      3.6997665E-02  7.5815380E-02
  0.4477214       2.233532      3.5993993E-02  7.5815380E-02
  0.4339555       2.304384      3.7497833E-02  7.4517876E-02
  0.4206128       2.377483      3.6210895E-02  7.4517876E-02
  0.4076804       2.452902      3.4435738E-02  7.4517876E-02
  0.3951457       2.530712      3.0593939E-02  7.4517876E-02
  0.3829963       2.610991      2.6898244E-02  7.2844379E-02
  0.3712204       2.693817      2.7323375E-02  7.2844379E-02
  0.3598067       2.779270      2.7362457E-02  7.2844379E-02
  0.3487439       2.867434      2.7274081E-02  7.2844379E-02
  0.3380212       2.958395      2.7146356E-02  7.2844379E-02
  0.3276282       3.052241      2.7329249E-02  7.2844379E-02
  0.3175547       3.149064      2.4785042E-02  7.0890777E-02
  0.3077910       3.248958      2.1057939E-02  7.0890777E-02
  0.2983274       3.352021      1.9586263E-02  7.0890777E-02
  0.2891549       3.458354      1.9822910E-02  7.0890777E-02
  0.2802644       3.568060      1.9323975E-02  7.0890777E-02
  0.2716472       3.681245      2.0491989E-02  7.0890777E-02
  0.2632950       3.798022      1.9175533E-02  6.8862669E-02
  0.2551996       3.918502      1.7265992E-02  6.8862669E-02
  0.2473530       4.042805      1.4661259E-02  6.8862669E-02
  0.2397478       4.171050      1.3758972E-02  6.8862669E-02
  0.2323764       4.303364      1.3847166E-02  6.8862669E-02
  0.2252316       4.439875      1.3597879E-02  6.8862669E-02
  0.2183065       4.580716      1.2261477E-02  6.8862669E-02
  0.2115943       4.726026      1.0230002E-02  6.7330934E-02
  0.2050885       4.875944      9.5880143E-03  6.7330934E-02
  0.1987827       5.030619      8.3589116E-03  6.7330934E-02
  0.1926708       5.190199      9.1545312E-03  6.7330934E-02
  0.1867469       5.354843      9.2045767E-03  6.7330934E-02
  0.1810050       5.524709      8.7634260E-03  6.7330934E-02
  0.1754397       5.699963      8.0361981E-03  6.7330934E-02
  0.1700456       5.880777      7.2285449E-03  6.7330934E-02
  0.1648172       6.067327      7.3073409E-03  6.7330934E-02
  0.1597497       6.259794      6.8586268E-03  6.5948218E-02
  0.1548379       6.458367      5.9575699E-03  6.5948218E-02
  0.1500772       6.663239      5.1276591E-03  6.5948218E-02
  0.1454628       6.874609      4.3476913E-03  6.5948218E-02
  0.1409903       7.092686      3.6426180E-03  6.5948218E-02
  0.1366553       7.317679      3.1203378E-03  6.5948218E-02
  0.1324537       7.549810      2.9620656E-03  6.5948218E-02
  0.1283812       7.789305      2.6982769E-03  6.5948218E-02
  0.1244339       8.036396      2.5017345E-03  6.5948218E-02
  0.1206080       8.291327      2.3824403E-03  6.5948218E-02
  0.1168997       8.554343      2.2507317E-03  6.5948218E-02
  0.1133054       8.825704      2.1032821E-03  6.5948218E-02
  0.1098217       9.105672      2.0949151E-03  6.4616807E-02
  0.1064450       9.394522      2.0874776E-03  6.4616807E-02
  0.1031722       9.692533      1.9362556E-03  6.4616807E-02
  0.1000000       10.00000      1.8130818E-03  6.4616807E-02
