 Calculated PSA for the frequency range: 
 Station:   VLDQ
 Component: BHZ
  0.1000000      Hz and    50.00000      Hz
         200 frequencies distributed logarithmically
 Oscillator damping is   5.000000     % of critical
  Freq.(Hz)       Period(s)      PSA(cm/s^2)  Smooth PSA(cm/s^2)
   50.00000      1.9999998E-02  8.8956207E-02  8.8956207E-02
   48.46267      2.0634437E-02  8.8243760E-02  8.7753527E-02
   46.97261      2.1289000E-02  8.7263294E-02  8.7146640E-02
   45.52837      2.1964328E-02  8.5932873E-02  8.6215951E-02
   44.12852      2.2661081E-02  8.5451685E-02  8.5922010E-02
   42.77172      2.3379933E-02  8.6381465E-02  8.6384676E-02
   41.45663      2.4121592E-02  8.7320864E-02  8.7196767E-02
   40.18199      2.4886772E-02  8.7887980E-02  8.7884009E-02
   38.94653      2.5676232E-02  8.8443168E-02  8.8564776E-02
   37.74905      2.6490729E-02  8.9363180E-02  8.9503258E-02
   36.58840      2.7331069E-02  9.0703435E-02  9.0573929E-02
   35.46343      2.8198060E-02  9.1655158E-02  9.1231845E-02
   34.37305      2.9092560E-02  9.1336951E-02  9.0503246E-02
   33.31620      3.0015431E-02  8.8517621E-02  8.8821910E-02
   32.29184      3.0967580E-02  8.6611144E-02  8.6908102E-02
   31.29897      3.1949930E-02  8.5595518E-02  8.5648738E-02
   30.33664      3.2963444E-02  8.4739543E-02  8.5068472E-02
   29.40389      3.4009106E-02  8.4870368E-02  8.5486352E-02
   28.49982      3.5087943E-02  8.6849146E-02  8.7473683E-02
   27.62355      3.6201000E-02  9.0701535E-02  9.0581395E-02
   26.77422      3.7349366E-02  9.4193518E-02  9.3189947E-02
   25.95100      3.8534161E-02  9.4674781E-02  9.4743073E-02
   25.15310      3.9756540E-02  9.5360935E-02  9.5372640E-02
   24.37972      4.1017693E-02  9.6082188E-02  9.3701459E-02
   23.63013      4.2318851E-02  9.3509637E-02  9.1713585E-02
   22.90358      4.3661289E-02  8.9853086E-02  9.0471365E-02
   22.19938      4.5046311E-02  8.7409437E-02  8.8470742E-02
   21.51682      4.6475261E-02  8.5502476E-02  8.7274432E-02
   20.85525      4.7949549E-02  8.6079098E-02  8.7113902E-02
   20.21403      4.9470600E-02  8.7528080E-02  8.7741733E-02
   19.59251      5.1039908E-02  8.9050449E-02  8.8948056E-02
   18.99011      5.2658990E-02  9.0548567E-02  9.0241686E-02
   18.40623      5.4329433E-02  9.1534093E-02  9.1337994E-02
   17.84030      5.6052871E-02  9.2547216E-02  9.3220592E-02
   17.29177      5.7830978E-02  9.3009643E-02  9.5875941E-02
   16.76011      5.9665482E-02  9.8463461E-02  9.8463915E-02
   16.24479      6.1558187E-02  0.1038253      9.8986655E-02
   15.74532      6.3510932E-02  0.1041462      0.1001375    
   15.26120      6.5525629E-02  9.8791592E-02  0.1011833    
   14.79198      6.7604221E-02  9.5683679E-02  0.1036908    
   14.33717      6.9748759E-02  9.9914566E-02  0.1046564    
   13.89635      7.1961328E-02  0.1074583      0.1051722    
   13.46909      7.4244082E-02  0.1160157      0.1070215    
   13.05496      7.6599240E-02  0.1105849      0.1103655    
   12.65356      7.9029121E-02  0.1077569      0.1121739    
   12.26451      8.1536077E-02  0.1117360      0.1124792    
   11.88742      8.4122561E-02  0.1190917      0.1127665    
   11.52192      8.6791091E-02  0.1177972      0.1126511    
   11.16766      8.9544266E-02  0.1069507      0.1135361    
   10.82429      9.2384785E-02  0.1099008      0.1156858    
   10.49148      9.5315412E-02  0.1183142      0.1186194    
   10.16891      9.8338999E-02  0.1096610      0.1212996    
   9.856246      0.1014585      0.1206160      0.1249311    
   9.553200      0.1046770      0.1271046      0.1294657    
   9.259472      0.1079975      0.1381388      0.1354169    
   8.974774      0.1114234      0.1292793      0.1402338    
   8.698831      0.1149580      0.1352331      0.1439961    
   8.431372      0.1186047      0.1541127      0.1505941    
   8.172135      0.1223670      0.1522968      0.1573269    
   7.920870      0.1262487      0.1694129      0.1649559    
   7.677330      0.1302536      0.1664832      0.1715074    
   7.441278      0.1343855      0.1524313      0.1830337    
   7.212485      0.1386485      0.1731836      0.1851848    
   6.990726      0.1430467      0.1888377      0.1910161    
   6.775784      0.1475844      0.2014094      0.1941353    
   6.567452      0.1522661      0.2186524      0.1989004    
   6.365525      0.1570962      0.2167560      0.2024966    
   6.169807      0.1620796      0.2252797      0.2060132    
   5.980107      0.1672211      0.2253491      0.2059945    
   5.796239      0.1725257      0.2131489      0.2087163    
   5.618024      0.1779985      0.2168712      0.2095785    
   5.445289      0.1836450      0.1943288      0.2125221    
   5.277865      0.1894706      0.1975880      0.2141267    
   5.115589      0.1954809      0.2237743      0.2192676    
   4.958302      0.2016820      0.2233554      0.2210747    
   4.805851      0.2080797      0.2192316      0.2240170    
   4.658087      0.2146804      0.2094286      0.2278816    
   4.514867      0.2214905      0.2022805      0.2283702    
   4.376050      0.2285166      0.1987011      0.2262968    
   4.241501      0.2357656      0.1878415      0.2241603    
   4.111090      0.2432445      0.2126560      0.2215594    
   3.984688      0.2509607      0.2387447      0.2201691    
   3.862172      0.2589217      0.2430104      0.2205879    
   3.743424      0.2671351      0.2558385      0.2207002    
   3.628326      0.2756092      0.2625148      0.2216228    
   3.516768      0.2843520      0.2547956      0.2224210    
   3.408639      0.2933722      0.2756005      0.2219026    
   3.303835      0.3026786      0.2706650      0.2195317    
   3.202253      0.3122801      0.2597882      0.2160295    
   3.103795      0.3221862      0.2386301      0.2142934    
   3.008364      0.3324066      0.2172877      0.2130871    
   2.915867      0.3429512      0.1887447      0.2126477    
   2.826214      0.3538303      0.1640093      0.2129722    
   2.739317      0.3650545      0.1781143      0.2145834    
   2.655093      0.3766347      0.2004950      0.2144622    
   2.573457      0.3885823      0.2061022      0.2150835    
   2.494333      0.4009089      0.2008694      0.2118060    
   2.417640      0.4136265      0.2052180      0.2093579    
   2.343306      0.4267475      0.2108097      0.2079354    
   2.271257      0.4402848      0.2103991      0.2053526    
   2.201424      0.4542515      0.2264626      0.1991782    
   2.133738      0.4686611      0.2416921      0.1921207    
   2.068133      0.4835280      0.2469228      0.1828990    
   2.004544      0.4988664      0.2252049      0.1737214    
   1.942912      0.5146915      0.2050202      0.1651481    
   1.883174      0.5310184      0.1968488      0.1549427    
   1.825273      0.5478634      0.1707864      0.1435949    
   1.769152      0.5652427      0.1614002      0.1323736    
   1.714756      0.5831733      0.1620908      0.1228214    
   1.662033      0.6016726      0.1851385      0.1108233    
   1.610931      0.6207589      0.1812928      9.8887399E-02
   1.561401      0.6404505      0.1803867      9.4105065E-02
   1.513393      0.6607669      0.1939675      9.4105065E-02
   1.466861      0.6817277      0.2036574      9.2974946E-02
   1.421760      0.7033534      0.2062586      9.2974946E-02
   1.378046      0.7256652      0.2062172      9.2088185E-02
   1.335676      0.7486846      0.2174628      9.2088185E-02
   1.294608      0.7724344      0.2358859      9.1416031E-02
   1.254804      0.7969375      0.2277640      9.1416031E-02
   1.216223      0.8222179      0.2073796      9.0598121E-02
   1.178828      0.8483002      0.2168179      9.0598121E-02
   1.142583      0.8752099      0.2332737      8.9551486E-02
   1.107453      0.9029732      0.2199389      8.9551486E-02
   1.073402      0.9316174      0.1731758      8.8430807E-02
   1.040399      0.9611701      0.1562724      8.8430807E-02
   1.008410      0.9916603      0.1683134      8.8430807E-02
  0.9774047       1.023118      0.1767070      8.7339170E-02
  0.9473529       1.055573      0.1852084      8.7339170E-02
  0.9182250       1.089058      0.1853802      8.7339170E-02
  0.8899927       1.123605      0.1929335      8.6183488E-02
  0.8626285       1.159248      0.1911564      8.6183488E-02
  0.8361056       1.196021      0.1788679      8.4949568E-02
  0.8103982       1.233961      0.1621047      8.4949568E-02
  0.7854812       1.273105      0.1511120      8.4949568E-02
  0.7613303       1.313490      0.1350843      8.3695076E-02
  0.7379220       1.355157      0.1132059      8.3695076E-02
  0.7152334       1.398145      9.1006286E-02  8.3695076E-02
  0.6932424       1.442497      7.3606946E-02  8.2252987E-02
  0.6719276       1.488256      6.3496061E-02  8.2252987E-02
  0.6512681       1.535466      6.5215349E-02  8.2252987E-02
  0.6312438       1.584174      7.3885240E-02  8.0626056E-02
  0.6118352       1.634427      7.9376630E-02  8.0626056E-02
  0.5930234       1.686274      7.4390613E-02  8.0626056E-02
  0.5747899       1.739766      6.7139812E-02  8.0626056E-02
  0.5571171       1.794955      6.3985236E-02  7.8911655E-02
  0.5399877       1.851894      6.2046580E-02  7.8911655E-02
  0.5233849       1.910640      5.7850316E-02  7.8911655E-02
  0.5072926       1.971249      5.0602410E-02  7.8911655E-02
  0.4916950       2.033781      4.0856805E-02  7.7387765E-02
  0.4765771       2.098296      3.6620915E-02  7.7387765E-02
  0.4619240       2.164858      2.9376488E-02  7.7387765E-02
  0.4477214       2.233532      2.2190252E-02  7.7387765E-02
  0.4339555       2.304384      1.9610746E-02  7.6044269E-02
  0.4206128       2.377483      1.6942294E-02  7.6044269E-02
  0.4076804       2.452902      1.5305099E-02  7.6044269E-02
  0.3951457       2.530712      1.5014712E-02  7.6044269E-02
  0.3829963       2.610991      1.5163692E-02  7.4759111E-02
  0.3712204       2.693817      1.4931957E-02  7.4759111E-02
  0.3598067       2.779270      1.3560216E-02  7.4759111E-02
  0.3487439       2.867434      1.2550998E-02  7.4759111E-02
  0.3380212       2.958395      1.0683818E-02  7.4759111E-02
  0.3276282       3.052241      1.1684088E-02  7.4759111E-02
  0.3175547       3.149064      1.2698944E-02  7.3726565E-02
  0.3077910       3.248958      1.4321822E-02  7.3726565E-02
  0.2983274       3.352021      1.5663544E-02  7.3726565E-02
  0.2891549       3.458354      1.6149467E-02  7.3726565E-02
  0.2802644       3.568060      1.6229024E-02  7.3726565E-02
  0.2716472       3.681245      1.5872311E-02  7.3726565E-02
  0.2632950       3.798022      1.5763486E-02  7.2773583E-02
  0.2551996       3.918502      1.5554976E-02  7.2773583E-02
  0.2473530       4.042805      1.4388454E-02  7.2773583E-02
  0.2397478       4.171050      1.2657616E-02  7.2773583E-02
  0.2323764       4.303364      1.2009566E-02  7.2773583E-02
  0.2252316       4.439875      1.2221100E-02  7.2773583E-02
  0.2183065       4.580716      1.2976537E-02  7.2773583E-02
  0.2115943       4.726026      1.3677539E-02  7.1792081E-02
  0.2050885       4.875944      1.4264451E-02  7.1792081E-02
  0.1987827       5.030619      1.4054164E-02  7.1792081E-02
  0.1926708       5.190199      1.3131537E-02  7.1792081E-02
  0.1867469       5.354843      1.1987597E-02  7.1792081E-02
  0.1810050       5.524709      1.0537657E-02  7.1792081E-02
  0.1754397       5.699963      9.2277294E-03  7.1792081E-02
  0.1700456       5.880777      8.2325656E-03  7.1792081E-02
  0.1648172       6.067327      7.4253390E-03  7.1792081E-02
  0.1597497       6.259794      6.6146581E-03  7.0532672E-02
  0.1548379       6.458367      5.8833053E-03  7.0532672E-02
  0.1500772       6.663239      5.3485935E-03  7.0532672E-02
  0.1454628       6.874609      4.9557188E-03  7.0532672E-02
  0.1409903       7.092686      4.5808144E-03  7.0532672E-02
  0.1366553       7.317679      4.1402169E-03  7.0532672E-02
  0.1324537       7.549810      3.9779851E-03  7.0532672E-02
  0.1283812       7.789305      3.8385037E-03  7.0532672E-02
  0.1244339       8.036396      3.6861184E-03  7.0532672E-02
  0.1206080       8.291327      3.4778076E-03  7.0532672E-02
  0.1168997       8.554343      3.2384528E-03  7.0532672E-02
  0.1133054       8.825704      2.9977502E-03  7.0532672E-02
  0.1098217       9.105672      2.7287167E-03  6.9288179E-02
  0.1064450       9.394522      2.4445688E-03  6.9288179E-02
  0.1031722       9.692533      2.1621827E-03  6.9288179E-02
  0.1000000       10.00000      1.9004848E-03  6.9288179E-02
