 Calculated PSA for the frequency range: 
 Station:   TRQ 
 Component: EHZ
  0.1000000      Hz and    50.00000      Hz
         200 frequencies distributed logarithmically
 Oscillator damping is   5.000000     % of critical
  Freq.(Hz)       Period(s)      PSA(cm/s^2)  Smooth PSA(cm/s^2)
   50.00000      1.9999998E-02  0.8744932      0.8744932    
   48.46267      2.0634437E-02  0.8813880      0.8849255    
   46.97261      2.1289000E-02  0.8884631      0.8883284    
   45.52837      2.1964328E-02  0.8951342      0.8939515    
   44.12852      2.2661081E-02  0.8982573      0.8957798    
   42.77172      2.3379933E-02  0.8939477      0.8963907    
   41.45663      2.4121592E-02  0.8969674      0.9004912    
   40.18199      2.4886772E-02  0.9105586      0.9089918    
   38.94653      2.5676232E-02  0.9194494      0.9114754    
   37.74905      2.6490729E-02  0.9044179      0.9194558    
   36.58840      2.7331069E-02  0.9345003      0.9400618    
   35.46343      2.8198060E-02  0.9812672      0.9607860    
   34.37305      2.9092560E-02  0.9665907      0.9865169    
   33.31620      3.0015431E-02   1.011693      0.9945702    
   32.29184      3.0967580E-02   1.005427       1.038642    
   31.29897      3.1949930E-02   1.098806       1.130581    
   30.33664      3.2963444E-02   1.287512       1.251705    
   29.40389      3.4009106E-02   1.368797       1.358341    
   28.49982      3.5087943E-02   1.418715       1.416394    
   27.62355      3.6201000E-02   1.461671       1.445755    
   26.77422      3.7349366E-02   1.456879       1.420380    
   25.95100      3.8534161E-02   1.342591       1.383074    
   25.15310      3.9756540E-02   1.349751       1.410294    
   24.37972      4.1017693E-02   1.538541       1.653188    
   23.63013      4.2318851E-02   1.701793       1.827468    
   22.90358      4.3661289E-02   2.022667       1.879029    
   22.19938      4.5046311E-02   2.046872       2.010954    
   21.51682      4.6475261E-02   2.085271       2.119483    
   20.85525      4.7949549E-02   2.198166       2.172126    
   20.21403      4.9470600E-02   2.244435       2.239366    
   19.59251      5.1039908E-02   2.285886       2.359587    
   18.99011      5.2658990E-02   2.383072       2.504086    
   18.40623      5.4329433E-02   2.686379       2.588269    
   17.84030      5.6052871E-02   2.920656       2.610603    
   17.29177      5.7830978E-02   2.665353       2.645230    
   16.76011      5.9665482E-02   2.397556       2.672386    
   16.24479      6.1558187E-02   2.556204       2.630920    
   15.74532      6.3510932E-02   2.791549       2.631133    
   15.26120      6.5525629E-02   2.702999       2.660508    
   14.79198      6.7604221E-02   2.671859       2.767699    
   14.33717      6.9748759E-02   2.666634       2.832617    
   13.89635      7.1961328E-02   2.836753       2.823606    
   13.46909      7.4244082E-02   3.147897       2.822599    
   13.05496      7.6599240E-02   3.010628       2.828876    
   12.65356      7.9029121E-02   2.728469       2.730289    
   12.26451      8.1536077E-02   2.695948       2.651361    
   11.88742      8.4122561E-02   2.715803       2.522526    
   11.52192      8.6791091E-02   2.428087       2.402764    
   11.16766      8.9544266E-02   2.278732       2.376718    
   10.82429      9.2384785E-02   2.205319       2.318926    
   10.49148      9.5315412E-02   2.117218       2.260520    
   10.16891      9.8338999E-02   2.052531       2.157329    
   9.856246      0.1014585       2.168348       2.093157    
   9.553200      0.1046770       2.208350       2.045837    
   9.259472      0.1079975       2.170290       2.018723    
   8.974774      0.1114234       2.082320       2.014336    
   8.698831      0.1149580       1.862092       2.043927    
   8.431372      0.1186047       1.786370       2.053548    
   8.172135      0.1223670       1.805530       2.066811    
   7.920870      0.1262487       1.934182       2.092123    
   7.677330      0.1302536       2.073341       2.104338    
   7.441278      0.1343855       2.183595       2.158092    
   7.212485      0.1386485       2.200179       2.188504    
   6.990726      0.1430467       2.167983       2.217997    
   6.775784      0.1475844       2.327499       2.233266    
   6.567452      0.1522661       2.512088       2.248849    
   6.365525      0.1570962       2.316871       2.258179    
   6.169807      0.1620796       2.296375       2.247087    
   5.980107      0.1672211       2.589089       2.173081    
   5.796239      0.1725257       2.583850       2.147352    
   5.618024      0.1779985       2.275002       2.126557    
   5.445289      0.1836450       2.123687       2.092625    
   5.277865      0.1894706       2.109711       2.073495    
   5.115589      0.1954809       2.039278       2.028221    
   4.958302      0.2016820       2.074141       1.991842    
   4.805851      0.2080797       1.906953       1.959605    
   4.658087      0.2146804       1.598594       1.908209    
   4.514867      0.2214905       1.637487       1.879665    
   4.376050      0.2285166       1.746191       1.795264    
   4.241501      0.2357656       1.846678       1.732398    
   4.111090      0.2432445       1.876545       1.656409    
   3.984688      0.2509607       1.807216       1.589956    
   3.862172      0.2589217       1.729145       1.534552    
   3.743424      0.2671351       1.747414       1.445167    
   3.628326      0.2756092       1.748111       1.391460    
   3.516768      0.2843520       1.784501       1.347843    
   3.408639      0.2933722       1.672127       1.284594    
   3.303835      0.3026786       1.676546       1.218599    
   3.202253      0.3122801       1.500117       1.176031    
   3.103795      0.3221862       1.280242       1.127879    
   3.008364      0.3324066       1.305235       1.082955    
   2.915867      0.3429512       1.222296       1.059741    
   2.826214      0.3538303       1.137944       1.016942    
   2.739317      0.3650545       1.148435      0.9639751    
   2.655093      0.3766347       1.035215      0.9338590    
   2.573457      0.3885823      0.8688868      0.8815399    
   2.494333      0.4009089      0.7161526      0.8402834    
   2.417640      0.4136265      0.6831886      0.7819326    
   2.343306      0.4267475      0.5939908      0.7407057    
   2.271257      0.4402848      0.6368671      0.7120974    
   2.201424      0.4542515      0.6368656      0.6671507    
   2.133738      0.4686611      0.6959693      0.6477516    
   2.068133      0.4835280      0.7744017      0.6041926    
   2.004544      0.4988664      0.7933221      0.5598072    
   1.942912      0.5146915      0.7311958      0.5373275    
   1.883174      0.5310184      0.6234428      0.4984690    
   1.825273      0.5478634      0.5222474      0.4646775    
   1.769152      0.5652427      0.4985803      0.4169510    
   1.714756      0.5831733      0.5338688      0.3859231    
   1.662033      0.6016726      0.5694318      0.3397321    
   1.610931      0.6207589      0.5680206      0.3025723    
   1.561401      0.6404505      0.5795131      0.2828298    
   1.513393      0.6607669      0.6135374      0.2828298    
   1.466861      0.6817277      0.6432627      0.2734499    
   1.421760      0.7033534      0.6636959      0.2734499    
   1.378046      0.7256652      0.6446335      0.2646643    
   1.335676      0.7486846      0.5349538      0.2646643    
   1.294608      0.7724344      0.3987091      0.2565028    
   1.254804      0.7969375      0.3991995      0.2565028    
   1.216223      0.8222179      0.3460267      0.2480884    
   1.178828      0.8483002      0.3471633      0.2480884    
   1.142583      0.8752099      0.3165628      0.2405919    
   1.107453      0.9029732      0.2964420      0.2405919    
   1.073402      0.9316174      0.2849170      0.2345506    
   1.040399      0.9611701      0.2637211      0.2345506    
   1.008410      0.9916603      0.2394356      0.2345506    
  0.9774047       1.023118      0.2497674      0.2298749    
  0.9473529       1.055573      0.2435614      0.2298749    
  0.9182250       1.089058      0.2519666      0.2298749    
  0.8899927       1.123605      0.2700042      0.2254306    
  0.8626285       1.159248      0.2621841      0.2254306    
  0.8361056       1.196021      0.2634908      0.2217815    
  0.8103982       1.233961      0.2560337      0.2217815    
  0.7854812       1.273105      0.2435684      0.2217815    
  0.7613303       1.313490      0.2434110      0.2176307    
  0.7379220       1.355157      0.2605095      0.2176307    
  0.7152334       1.398145      0.2855125      0.2176307    
  0.6932424       1.442497      0.3010685      0.2133960    
  0.6719276       1.488256      0.2975315      0.2133960    
  0.6512681       1.535466      0.3165046      0.2133960    
  0.6312438       1.584174      0.3153689      0.2084717    
  0.6118352       1.634427      0.2932398      0.2084717    
  0.5930234       1.686274      0.2689209      0.2084717    
  0.5747899       1.739766      0.2438532      0.2084717    
  0.5571171       1.794955      0.2271865      0.2026374    
  0.5399877       1.851894      0.2157243      0.2026374    
  0.5233849       1.910640      0.2069457      0.2026374    
  0.5072926       1.971249      0.1953330      0.2026374    
  0.4916950       2.033781      0.1921808      0.1964844    
  0.4765771       2.098296      0.1926347      0.1964844    
  0.4619240       2.164858      0.1863492      0.1964844    
  0.4477214       2.233532      0.1843962      0.1964844    
  0.4339555       2.304384      0.1770639      0.1908559    
  0.4206128       2.377483      0.1606730      0.1908559    
  0.4076804       2.452902      0.1394398      0.1908559    
  0.3951457       2.530712      0.1256969      0.1908559    
  0.3829963       2.610991      0.1101581      0.1862539    
  0.3712204       2.693817      9.3770757E-02  0.1862539    
  0.3598067       2.779270      7.8543968E-02  0.1862539    
  0.3487439       2.867434      6.5978914E-02  0.1862539    
  0.3380212       2.958395      5.8585804E-02  0.1862539    
  0.3276282       3.052241      4.9414065E-02  0.1862539    
  0.3175547       3.149064      3.9996985E-02  0.1826411    
  0.3077910       3.248958      3.3252005E-02  0.1826411    
  0.2983274       3.352021      2.9321443E-02  0.1826411    
  0.2891549       3.458354      2.7625229E-02  0.1826411    
  0.2802644       3.568060      2.5718857E-02  0.1826411    
  0.2716472       3.681245      2.5898272E-02  0.1826411    
  0.2632950       3.798022      2.7024195E-02  0.1792070    
  0.2551996       3.918502      2.9327966E-02  0.1792070    
  0.2473530       4.042805      3.1555992E-02  0.1792070    
  0.2397478       4.171050      3.3318575E-02  0.1792070    
  0.2323764       4.303364      3.3881020E-02  0.1792070    
  0.2252316       4.439875      3.2709066E-02  0.1792070    
  0.2183065       4.580716      3.1409211E-02  0.1792070    
  0.2115943       4.726026      2.9816752E-02  0.1753096    
  0.2050885       4.875944      2.7783772E-02  0.1753096    
  0.1987827       5.030619      2.5446201E-02  0.1753096    
  0.1926708       5.190199      2.3825590E-02  0.1753096    
  0.1867469       5.354843      2.2731181E-02  0.1753096    
  0.1810050       5.524709      2.0724481E-02  0.1753096    
  0.1754397       5.699963      1.8220874E-02  0.1753096    
  0.1700456       5.880777      1.6109217E-02  0.1753096    
  0.1648172       6.067327      1.4698298E-02  0.1753096    
  0.1597497       6.259794      1.3518071E-02  0.1709304    
  0.1548379       6.458367      1.2400473E-02  0.1709304    
  0.1500772       6.663239      1.1269719E-02  0.1709304    
  0.1454628       6.874609      1.0093410E-02  0.1709304    
  0.1409903       7.092686      8.9707719E-03  0.1709304    
  0.1366553       7.317679      8.0380561E-03  0.1709304    
  0.1324537       7.549810      7.2882380E-03  0.1709304    
  0.1283812       7.789305      6.7042722E-03  0.1709304    
  0.1244339       8.036396      6.2486236E-03  0.1709304    
  0.1206080       8.291327      5.8235303E-03  0.1709304    
  0.1168997       8.554343      5.3840899E-03  0.1709304    
  0.1133054       8.825704      4.9536307E-03  0.1709304    
  0.1098217       9.105672      4.5568589E-03  0.1664687    
  0.1064450       9.394522      4.2032730E-03  0.1664687    
  0.1031722       9.692533      3.8952457E-03  0.1664687    
  0.1000000       10.00000      3.6283794E-03  0.1664687    
