 Calculated PSA for the frequency range: 
 Station:   ELGO
 Component: HHZ
  0.1000000      Hz and    50.00000      Hz
         200 frequencies distributed logarithmically
 Oscillator damping is   5.000000     % of critical
  Freq.(Hz)       Period(s)      PSA(cm/s^2)  Smooth PSA(cm/s^2)
   50.00000      1.9999998E-02  0.3353863      0.3353863    
   48.46267      2.0634437E-02  0.3353370      0.3353206    
   46.97261      2.1289000E-02  0.3353043      0.3352579    
   45.52837      2.1964328E-02  0.3351325      0.3353117    
   44.12852      2.2661081E-02  0.3354982      0.3356818    
   42.77172      2.3379933E-02  0.3364147      0.3357470    
   41.45663      2.4121592E-02  0.3353280      0.3366825    
   40.18199      2.4886772E-02  0.3383048      0.3371922    
   38.94653      2.5676232E-02  0.3379437      0.3391656    
   37.74905      2.6490729E-02  0.3412481      0.3405634    
   36.58840      2.7331069E-02  0.3424985      0.3427343    
   35.46343      2.8198060E-02  0.3444563      0.3436773    
   34.37305      2.9092560E-02  0.3440770      0.3431813    
   33.31620      3.0015431E-02  0.3410105      0.3406052    
   32.29184      3.0967580E-02  0.3367281      0.3372580    
   31.29897      3.1949930E-02  0.3340352      0.3354942    
   30.33664      3.2963444E-02  0.3357193      0.3367672    
   29.40389      3.4009106E-02  0.3405473      0.3414166    
   28.49982      3.5087943E-02  0.3479832      0.3468155    
   27.62355      3.6201000E-02  0.3519161      0.3505691    
   26.77422      3.7349366E-02  0.3518079      0.3530925    
   25.95100      3.8534161E-02  0.3555536      0.3563174    
   25.15310      3.9756540E-02  0.3615908      0.3584892    
   24.37972      4.1017693E-02  0.3583233      0.3594414    
   23.63013      4.2318851E-02  0.3617947      0.3538294    
   22.90358      4.3661289E-02  0.3560568      0.3505633    
   22.19938      4.5046311E-02  0.3391425      0.3470741    
   21.51682      4.6475261E-02  0.3374994      0.3468327    
   20.85525      4.7949549E-02  0.3408770      0.3531348    
   20.21403      4.9470600E-02  0.3605877      0.3623925    
   19.59251      5.1039908E-02  0.3875674      0.3760237    
   18.99011      5.2658990E-02  0.3854309      0.3903421    
   18.40623      5.4329433E-02  0.4056553      0.4022007    
   17.84030      5.6052871E-02  0.4124694      0.4104550    
   17.29177      5.7830978E-02  0.4198805      0.4212438    
   16.76011      5.9665482E-02  0.4288388      0.4282631    
   16.24479      6.1558187E-02  0.4393748      0.4331499    
   15.74532      6.3510932E-02  0.4393429      0.4391383    
   15.26120      6.5525629E-02  0.4296721      0.4458160    
   14.79198      6.7604221E-02  0.4417904      0.4523254    
   14.33717      6.9748759E-02  0.4558106      0.4597127    
   13.89635      7.1961328E-02  0.4858828      0.4701953    
   13.46909      7.4244082E-02  0.4744040      0.4875296    
   13.05496      7.6599240E-02  0.4910858      0.5026635    
   12.65356      7.9029121E-02  0.5127212      0.5352851    
   12.26451      8.1536077E-02  0.5510124      0.5489188    
   11.88742      8.4122561E-02  0.5477277      0.5645483    
   11.52192      8.6791091E-02  0.5912116      0.5795488    
   11.16766      8.9544266E-02  0.6282356      0.5817115    
   10.82429      9.2384785E-02  0.5949522      0.5915394    
   10.49148      9.5315412E-02  0.5994392      0.6031302    
   10.16891      9.8338999E-02  0.6110907      0.6208342    
   9.856246      0.1014585      0.5990133      0.6295131    
   9.553200      0.1046770      0.6011722      0.6366801    
   9.259472      0.1079975      0.6553302      0.6439767    
   8.974774      0.1114234      0.6769400      0.6603535    
   8.698831      0.1149580      0.6509566      0.7032493    
   8.431372      0.1186047      0.6780015      0.7445232    
   8.172135      0.1223670      0.6999051      0.7935809    
   7.920870      0.1262487      0.6679187      0.8341196    
   7.677330      0.1302536      0.7632063      0.8563522    
   7.441278      0.1343855      0.8505583      0.8863671    
   7.212485      0.1386485      0.9848986      0.8965545    
   6.990726      0.1430467       1.106377      0.9168478    
   6.775784      0.1475844       1.187706      0.9470816    
   6.567452      0.1522661       1.087636      0.9740657    
   6.365525      0.1570962      0.9221217       1.002776    
   6.169807      0.1620796      0.9061612       1.027655    
   5.980107      0.1672211       1.017324       1.060728    
   5.796239      0.1725257       1.028991       1.081135    
   5.618024      0.1779985      0.9350636       1.083244    
   5.445289      0.1836450      0.9674529       1.066543    
   5.277865      0.1894706       1.080902       1.071436    
   5.115589      0.1954809       1.104669       1.069163    
   4.958302      0.2016820       1.098571       1.059886    
   4.805851      0.2080797       1.136394       1.051496    
   4.658087      0.2146804       1.271059       1.025555    
   4.514867      0.2214905       1.346497       1.009737    
   4.376050      0.2285166       1.197468      0.9722521    
   4.241501      0.2357656       1.020757      0.9471207    
   4.111090      0.2432445      0.8805725      0.9044114    
   3.984688      0.2509607       1.008426      0.8642907    
   3.862172      0.2589217       1.159518      0.8413477    
   3.743424      0.2671351       1.134717      0.7968093    
   3.628326      0.2756092       1.078965      0.7693419    
   3.516768      0.2843520      0.9020881      0.7459634    
   3.408639      0.2933722      0.7543167      0.7095945    
   3.303835      0.3026786      0.7282674      0.6738241    
   3.202253      0.3122801      0.6846330      0.6599573    
   3.103795      0.3221862      0.6775649      0.6301270    
   3.008364      0.3324066      0.6046353      0.6023938    
   2.915867      0.3429512      0.5602675      0.5940382    
   2.826214      0.3538303      0.4509690      0.5654908    
   2.739317      0.3650545      0.4372968      0.5443793    
   2.655093      0.3766347      0.4198658      0.5386733    
   2.573457      0.3885823      0.3977267      0.5269706    
   2.494333      0.4009089      0.3679558      0.5229657    
   2.417640      0.4136265      0.3709368      0.4969560    
   2.343306      0.4267475      0.3584916      0.4708102    
   2.271257      0.4402848      0.3612193      0.4519470    
   2.201424      0.4542515      0.3815265      0.4208976    
   2.133738      0.4686611      0.4155402      0.4057393    
   2.068133      0.4835280      0.4266930      0.3757717    
   2.004544      0.4988664      0.4013271      0.3504682    
   1.942912      0.5146915      0.3521411      0.3350749    
   1.883174      0.5310184      0.3576693      0.3129838    
   1.825273      0.5478634      0.3794351      0.2906428    
   1.769152      0.5652427      0.4331622      0.2657599    
   1.714756      0.5831733      0.4568818      0.2465680    
   1.662033      0.6016726      0.4498292      0.2203647    
   1.610931      0.6207589      0.4669536      0.1965126    
   1.561401      0.6404505      0.4900858      0.1851485    
   1.513393      0.6607669      0.5158761      0.1851485    
   1.466861      0.6817277      0.4759694      0.1813000    
   1.421760      0.7033534      0.4196639      0.1813000    
   1.378046      0.7256652      0.3712296      0.1777910    
   1.335676      0.7486846      0.3354741      0.1777910    
   1.294608      0.7724344      0.3650715      0.1752380    
   1.254804      0.7969375      0.3978277      0.1752380    
   1.216223      0.8222179      0.4065432      0.1727657    
   1.178828      0.8483002      0.4482692      0.1727657    
   1.142583      0.8752099      0.4686089      0.1704124    
   1.107453      0.9029732      0.4591231      0.1704124    
   1.073402      0.9316174      0.4846784      0.1682267    
   1.040399      0.9611701      0.4865369      0.1682267    
   1.008410      0.9916603      0.4294750      0.1682267    
  0.9774047       1.023118      0.3487885      0.1662876    
  0.9473529       1.055573      0.2632312      0.1662876    
  0.9182250       1.089058      0.2198810      0.1662876    
  0.8899927       1.123605      0.2075154      0.1642812    
  0.8626285       1.159248      0.1939631      0.1642812    
  0.8361056       1.196021      0.1732608      0.1623583    
  0.8103982       1.233961      0.1471227      0.1623583    
  0.7854812       1.273105      0.1300233      0.1623583    
  0.7613303       1.313490      0.1272866      0.1603697    
  0.7379220       1.355157      0.1267478      0.1603697    
  0.7152334       1.398145      0.1389585      0.1603697    
  0.6932424       1.442497      0.1365151      0.1581358    
  0.6719276       1.488256      0.1380311      0.1581358    
  0.6512681       1.535466      0.1392837      0.1581358    
  0.6312438       1.584174      0.1336231      0.1555092    
  0.6118352       1.634427      0.1345146      0.1555092    
  0.5930234       1.686274      0.1362068      0.1555092    
  0.5747899       1.739766      0.1237518      0.1555092    
  0.5571171       1.794955      0.1286171      0.1527135    
  0.5399877       1.851894      0.1170064      0.1527135    
  0.5233849       1.910640      0.1083676      0.1527135    
  0.5072926       1.971249      0.1065960      0.1527135    
  0.4916950       2.033781      0.1028011      0.1501238    
  0.4765771       2.098296      9.8927490E-02  0.1501238    
  0.4619240       2.164858      9.6114136E-02  0.1501238    
  0.4477214       2.233532      8.8066570E-02  0.1501238    
  0.4339555       2.304384      7.4787848E-02  0.1479973    
  0.4206128       2.377483      6.2016908E-02  0.1479973    
  0.4076804       2.452902      5.1544730E-02  0.1479973    
  0.3951457       2.530712      4.6911344E-02  0.1479973    
  0.3829963       2.610991      4.2264648E-02  0.1457667    
  0.3712204       2.693817      3.3992622E-02  0.1457667    
  0.3598067       2.779270      3.2026004E-02  0.1457667    
  0.3487439       2.867434      2.8735792E-02  0.1457667    
  0.3380212       2.958395      3.1007798E-02  0.1457667    
  0.3276282       3.052241      3.4297824E-02  0.1457667    
  0.3175547       3.149064      3.3684395E-02  0.1432542    
  0.3077910       3.248958      3.0694734E-02  0.1432542    
  0.2983274       3.352021      2.9535562E-02  0.1432542    
  0.2891549       3.458354      3.1021316E-02  0.1432542    
  0.2802644       3.568060      3.2222368E-02  0.1432542    
  0.2716472       3.681245      3.3695634E-02  0.1432542    
  0.2632950       3.798022      3.3261031E-02  0.1401030    
  0.2551996       3.918502      3.0370556E-02  0.1401030    
  0.2473530       4.042805      2.8082861E-02  0.1401030    
  0.2397478       4.171050      2.7234280E-02  0.1401030    
  0.2323764       4.303364      2.5963824E-02  0.1401030    
  0.2252316       4.439875      2.3682754E-02  0.1401030    
  0.2183065       4.580716      2.2026204E-02  0.1401030    
  0.2115943       4.726026      2.1309707E-02  0.1366219    
  0.2050885       4.875944      2.1113636E-02  0.1366219    
  0.1987827       5.030619      2.0834360E-02  0.1366219    
  0.1926708       5.190199      2.0609751E-02  0.1366219    
  0.1867469       5.354843      1.9992333E-02  0.1366219    
  0.1810050       5.524709      1.8592207E-02  0.1366219    
  0.1754397       5.699963      1.6724072E-02  0.1366219    
  0.1700456       5.880777      1.4990675E-02  0.1366219    
  0.1648172       6.067327      1.3695992E-02  0.1366219    
  0.1597497       6.259794      1.2427898E-02  0.1331418    
  0.1548379       6.458367      1.1115844E-02  0.1331418    
  0.1500772       6.663239      1.0010072E-02  0.1331418    
  0.1454628       6.874609      8.9100655E-03  0.1331418    
  0.1409903       7.092686      7.8090569E-03  0.1331418    
  0.1366553       7.317679      6.9695865E-03  0.1331418    
  0.1324537       7.549810      6.4498903E-03  0.1331418    
  0.1283812       7.789305      6.1543342E-03  0.1331418    
  0.1244339       8.036396      5.9375949E-03  0.1331418    
  0.1206080       8.291327      5.7305261E-03  0.1331418    
  0.1168997       8.554343      5.4871896E-03  0.1331418    
  0.1133054       8.825704      5.2003320E-03  0.1331418    
  0.1098217       9.105672      4.8628184E-03  0.1293911    
  0.1064450       9.394522      4.4795438E-03  0.1293911    
  0.1031722       9.692533      4.0702675E-03  0.1293911    
  0.1000000       10.00000      3.6395912E-03  0.1293911    
