 Calculated PSA for the frequency range: 
 Station:   HGVO
 Component: HHE
  0.1000000      Hz and    50.00000      Hz
         200 frequencies distributed logarithmically
 Oscillator damping is   5.000000     % of critical
  Freq.(Hz)       Period(s)      PSA(cm/s^2)  Smooth PSA(cm/s^2)
   50.00000      1.9999998E-02  0.3505745      0.3505745    
   48.46267      2.0634437E-02  0.3539170      0.3566481    
   46.97261      2.1289000E-02  0.3593793      0.3608749    
   45.52837      2.1964328E-02  0.3693285      0.3689298    
   44.12852      2.2661081E-02  0.3780817      0.3788616    
   42.77172      2.3379933E-02  0.3891746      0.3993355    
   41.45663      2.4121592E-02  0.4307501      0.4318093    
   40.18199      2.4886772E-02  0.4755032      0.4610219    
   38.94653      2.5676232E-02  0.4768122      0.4766202    
   37.74905      2.6490729E-02  0.4775451      0.4774810    
   36.58840      2.7331069E-02  0.4780859      0.4749232    
   35.46343      2.8198060E-02  0.4691385      0.4634972    
   34.37305      2.9092560E-02  0.4432671      0.4570025    
   33.31620      3.0015431E-02  0.4586019      0.4750044    
   32.29184      3.0967580E-02  0.5231442      0.5167000    
   31.29897      3.1949930E-02  0.5683540      0.5467531    
   30.33664      3.2963444E-02  0.5487611      0.5497468    
   29.40389      3.4009106E-02  0.5321256      0.5317984    
   28.49982      3.5087943E-02  0.5145087      0.5414408    
   27.62355      3.6201000E-02  0.5776880      0.5650832    
   26.77422      3.7349366E-02  0.6030529      0.5993188    
   25.95100      3.8534161E-02  0.6172156      0.6085395    
   25.15310      3.9756540E-02  0.6053500      0.5856652    
   24.37972      4.1017693E-02  0.5344300      0.5324770    
   23.63013      4.2318851E-02  0.4797787      0.5137966    
   22.90358      4.3661289E-02  0.5103495      0.5245184    
   22.19938      4.5046311E-02  0.5306280      0.5408612    
   21.51682      4.6475261E-02  0.5674057      0.5645849    
   20.85525      4.7949549E-02  0.6161439      0.5819498    
   20.21403      4.9470600E-02  0.5983969      0.6045259    
   19.59251      5.1039908E-02  0.5971745      0.6248567    
   18.99011      5.2658990E-02  0.6435082      0.6333362    
   18.40623      5.4329433E-02  0.6690599      0.6320454    
   17.84030      5.6052871E-02  0.6585412      0.6333019    
   17.29177      5.7830978E-02  0.5919432      0.6205079    
   16.76011      5.9665482E-02  0.6034572      0.5792305    
   16.24479      6.1558187E-02  0.5795380      0.5547062    
   15.74532      6.3510932E-02  0.5187542      0.5399414    
   15.26120      6.5525629E-02  0.5231487      0.5331784    
   14.79198      6.7604221E-02  0.5113959      0.5192701    
   14.33717      6.9748759E-02  0.5033542      0.5152245    
   13.89635      7.1961328E-02  0.4926001      0.5173980    
   13.46909      7.4244082E-02  0.5060992      0.5166763    
   13.05496      7.6599240E-02  0.5512190      0.5190347    
   12.65356      7.9029121E-02  0.5339687      0.5216025    
   12.26451      8.1536077E-02  0.5180970      0.5327269    
   11.88742      8.4122561E-02  0.5279043      0.5481075    
   11.52192      8.6791091E-02  0.5038829      0.5619422    
   11.16766      8.9544266E-02  0.5390488      0.5682374    
   10.82429      9.2384785E-02  0.5815954      0.5752963    
   10.49148      9.5315412E-02  0.6291435      0.5865476    
   10.16891      9.8338999E-02  0.6618966      0.6332108    
   9.856246      0.1014585      0.6185989      0.6654235    
   9.553200      0.1046770      0.5974991      0.6842860    
   9.259472      0.1079975      0.6193588      0.6996245    
   8.974774      0.1114234      0.7358557      0.7094336    
   8.698831      0.1149580      0.8452287      0.6975700    
   8.431372      0.1186047      0.8260093      0.6938283    
   8.172135      0.1223670      0.7276738      0.6969645    
   7.920870      0.1262487      0.7349806      0.7108572    
   7.677330      0.1302536      0.7272347      0.7204856    
   7.441278      0.1343855      0.6831103      0.7126507    
   7.212485      0.1386485      0.5933940      0.7090219    
   6.990726      0.1430467      0.6169963      0.6975717    
   6.775784      0.1475844      0.6562331      0.6944270    
   6.567452      0.1522661      0.7642117      0.6964054    
   6.365525      0.1570962      0.7348982      0.6993145    
   6.169807      0.1620796      0.6995419      0.7102783    
   5.980107      0.1672211      0.6549459      0.7339616    
   5.796239      0.1725257      0.6618469      0.7491784    
   5.618024      0.1779985      0.6849272      0.7683076    
   5.445289      0.1836450      0.7079459      0.7837684    
   5.277865      0.1894706      0.7684648      0.7844158    
   5.115589      0.1954809      0.7573497      0.7975613    
   4.958302      0.2016820      0.7786176      0.7996913    
   4.805851      0.2080797      0.8916913      0.8014882    
   4.658087      0.2146804      0.9208377      0.8048041    
   4.514867      0.2214905      0.9023344      0.8050914    
   4.376050      0.2285166      0.9417951      0.7988650    
   4.241501      0.2357656      0.9185910      0.7919616    
   4.111090      0.2432445      0.8678225      0.7690834    
   3.984688      0.2509607      0.7957757      0.7440780    
   3.862172      0.2589217      0.7960691      0.7312529    
   3.743424      0.2671351      0.8464382      0.7017975    
   3.628326      0.2756092      0.8571203      0.6764299    
   3.516768      0.2843520      0.8068111      0.6595978    
   3.408639      0.2933722      0.7708372      0.6287284    
   3.303835      0.3026786      0.7566032      0.5985644    
   3.202253      0.3122801      0.8140634      0.5799371    
   3.103795      0.3221862      0.8111243      0.5555219    
   3.008364      0.3324066      0.7064025      0.5345500    
   2.915867      0.3429512      0.6104267      0.5258138    
   2.826214      0.3538303      0.5030678      0.5049751    
   2.739317      0.3650545      0.4743418      0.4842692    
   2.655093      0.3766347      0.4534713      0.4758191    
   2.573457      0.3885823      0.4737603      0.4595285    
   2.494333      0.4009089      0.4142632      0.4488751    
   2.417640      0.4136265      0.3744954      0.4274687    
   2.343306      0.4267475      0.3516396      0.4095544    
   2.271257      0.4402848      0.3527833      0.3921075    
   2.201424      0.4542515      0.3527266      0.3662523    
   2.133738      0.4686611      0.3152061      0.3505749    
   2.068133      0.4835280      0.2692176      0.3231269    
   2.004544      0.4988664      0.2398667      0.2988885    
   1.942912      0.5146915      0.2722696      0.2836606    
   1.883174      0.5310184      0.2876910      0.2627394    
   1.825273      0.5478634      0.2976456      0.2440547    
   1.769152      0.5652427      0.2868982      0.2208747    
   1.714756      0.5831733      0.2955288      0.2045834    
   1.662033      0.6016726      0.3207822      0.1797588    
   1.610931      0.6207589      0.3498766      0.1600993    
   1.561401      0.6404505      0.3561828      0.1484481    
   1.513393      0.6607669      0.3676533      0.1484481    
   1.466861      0.6817277      0.3788936      0.1433293    
   1.421760      0.7033534      0.3669677      0.1433293    
   1.378046      0.7256652      0.3461812      0.1390043    
   1.335676      0.7486846      0.3295574      0.1390043    
   1.294608      0.7724344      0.3121263      0.1356018    
   1.254804      0.7969375      0.3039091      0.1356018    
   1.216223      0.8222179      0.3074220      0.1324062    
   1.178828      0.8483002      0.3146645      0.1324062    
   1.142583      0.8752099      0.3264911      0.1293484    
   1.107453      0.9029732      0.3329471      0.1293484    
   1.073402      0.9316174      0.3189579      0.1260367    
   1.040399      0.9611701      0.3034416      0.1260367    
   1.008410      0.9916603      0.2767793      0.1260367    
  0.9774047       1.023118      0.2465432      0.1232384    
  0.9473529       1.055573      0.2248754      0.1232384    
  0.9182250       1.089058      0.2160060      0.1232384    
  0.8899927       1.123605      0.1987069      0.1207751    
  0.8626285       1.159248      0.1649472      0.1207751    
  0.8361056       1.196021      0.1292359      0.1184893    
  0.8103982       1.233961      0.1100646      0.1184893    
  0.7854812       1.273105      9.9571012E-02  0.1184893    
  0.7613303       1.313490      9.1981664E-02  0.1161464    
  0.7379220       1.355157      8.3111286E-02  0.1161464    
  0.7152334       1.398145      8.5232481E-02  0.1161464    
  0.6932424       1.442497      7.6770648E-02  0.1137567    
  0.6719276       1.488256      6.9112010E-02  0.1137567    
  0.6512681       1.535466      7.4940503E-02  0.1137567    
  0.6312438       1.584174      7.6605037E-02  0.1117011    
  0.6118352       1.634427      7.5295202E-02  0.1117011    
  0.5930234       1.686274      6.9409639E-02  0.1117011    
  0.5747899       1.739766      6.8101443E-02  0.1117011    
  0.5571171       1.794955      7.0015043E-02  0.1100772    
  0.5399877       1.851894      6.9558837E-02  0.1100772    
  0.5233849       1.910640      6.9777556E-02  0.1100772    
  0.5072926       1.971249      6.4059019E-02  0.1100772    
  0.4916950       2.033781      5.5216238E-02  0.1087252    
  0.4765771       2.098296      4.9076125E-02  0.1087252    
  0.4619240       2.164858      4.4962790E-02  0.1087252    
  0.4477214       2.233532      4.1258585E-02  0.1087252    
  0.4339555       2.304384      4.2595398E-02  0.1070037    
  0.4206128       2.377483      4.5407731E-02  0.1070037    
  0.4076804       2.452902      4.6260070E-02  0.1070037    
  0.3951457       2.530712      4.3991689E-02  0.1070037    
  0.3829963       2.610991      3.9117306E-02  0.1050815    
  0.3712204       2.693817      3.2173116E-02  0.1050815    
  0.3598067       2.779270      2.9347358E-02  0.1050815    
  0.3487439       2.867434      2.7136529E-02  0.1050815    
  0.3380212       2.958395      2.4928922E-02  0.1050815    
  0.3276282       3.052241      2.2379439E-02  0.1050815    
  0.3175547       3.149064      1.9665183E-02  0.1030109    
  0.3077910       3.248958      1.9307217E-02  0.1030109    
  0.2983274       3.352021      2.1072170E-02  0.1030109    
  0.2891549       3.458354      2.1313667E-02  0.1030109    
  0.2802644       3.568060      2.0475252E-02  0.1030109    
  0.2716472       3.681245      2.0650342E-02  0.1030109    
  0.2632950       3.798022      1.9911407E-02  0.1010122    
  0.2551996       3.918502      1.9447759E-02  0.1010122    
  0.2473530       4.042805      1.9526646E-02  0.1010122    
  0.2397478       4.171050      1.9153142E-02  0.1010122    
  0.2323764       4.303364      1.8087970E-02  0.1010122    
  0.2252316       4.439875      1.6808555E-02  0.1010122    
  0.2183065       4.580716      1.5836129E-02  0.1010122    
  0.2115943       4.726026      1.5300174E-02  9.8874629E-02
  0.2050885       4.875944      1.4192004E-02  9.8874629E-02
  0.1987827       5.030619      1.2985322E-02  9.8874629E-02
  0.1926708       5.190199      1.1207093E-02  9.8874629E-02
  0.1867469       5.354843      9.7516617E-03  9.8874629E-02
  0.1810050       5.524709      8.3753737E-03  9.8874629E-02
  0.1754397       5.699963      7.3096948E-03  9.8874629E-02
  0.1700456       5.880777      6.8099024E-03  9.8874629E-02
  0.1648172       6.067327      6.4631784E-03  9.8874629E-02
  0.1597497       6.259794      6.0787122E-03  9.6408978E-02
  0.1548379       6.458367      5.6786207E-03  9.6408978E-02
  0.1500772       6.663239      5.3147553E-03  9.6408978E-02
  0.1454628       6.874609      5.0338632E-03  9.6408978E-02
  0.1409903       7.092686      4.8028394E-03  9.6408978E-02
  0.1366553       7.317679      4.6358234E-03  9.6408978E-02
  0.1324537       7.549810      4.4938764E-03  9.6408978E-02
  0.1283812       7.789305      4.2639887E-03  9.6408978E-02
  0.1244339       8.036396      3.9206692E-03  9.6408978E-02
  0.1206080       8.291327      3.4816922E-03  9.6408978E-02
  0.1168997       8.554343      3.0452106E-03  9.6408978E-02
  0.1133054       8.825704      2.7956308E-03  9.6408978E-02
  0.1098217       9.105672      2.6744076E-03  9.3561031E-02
  0.1064450       9.394522      2.5447966E-03  9.3561031E-02
  0.1031722       9.692533      2.3905830E-03  9.3561031E-02
  0.1000000       10.00000      2.1790364E-03  9.3561031E-02
