 Calculated PSA for the frequency range: 
 Station:   KGNO
 Component: BHN
  0.1000000      Hz and    50.00000      Hz
         200 frequencies distributed logarithmically
 Oscillator damping is   5.000000     % of critical
  Freq.(Hz)       Period(s)      PSA(cm/s^2)  Smooth PSA(cm/s^2)
   50.00000      1.9999998E-02   2.293308       2.293308    
   48.46267      2.0634437E-02   2.258575       2.259244    
   46.97261      2.1289000E-02   2.259914       2.261546    
   45.52837      2.1964328E-02   2.266150       2.243943    
   44.12852      2.2661081E-02   2.205764       2.217652    
   42.77172      2.3379933E-02   2.181042       2.201524    
   41.45663      2.4121592E-02   2.217765       2.222464    
   40.18199      2.4886772E-02   2.268584       2.269293    
   38.94653      2.5676232E-02   2.321529       2.320377    
   37.74905      2.6490729E-02   2.371020       2.357968    
   36.58840      2.7331069E-02   2.381356       2.345380    
   35.46343      2.8198060E-02   2.283762       2.318680    
   34.37305      2.9092560E-02   2.290920       2.279703    
   33.31620      3.0015431E-02   2.264429       2.292268    
   32.29184      3.0967580E-02   2.321453       2.343493    
   31.29897      3.1949930E-02   2.444598       2.452065    
   30.33664      3.2963444E-02   2.590143       2.530620    
   29.40389      3.4009106E-02   2.557118       2.531585    
   28.49982      3.5087943E-02   2.447495       2.449449    
   27.62355      3.6201000E-02   2.343735       2.320787    
   26.77422      3.7349366E-02   2.171131       2.231194    
   25.95100      3.8534161E-02   2.178717       2.198142    
   25.15310      3.9756540E-02   2.244579       2.214789    
   24.37972      4.1017693E-02   2.221072       2.199028    
   23.63013      4.2318851E-02   2.175049       2.162327    
   22.90358      4.3661289E-02   2.155411       2.154142    
   22.19938      4.5046311E-02   2.097778       2.143884    
   21.51682      4.6475261E-02   2.121402       2.155769    
   20.85525      4.7949549E-02   2.169782       2.185474    
   20.21403      4.9470600E-02   2.234474       2.239763    
   19.59251      5.1039908E-02   2.303933       2.302922    
   18.99011      5.2658990E-02   2.369223       2.396567    
   18.40623      5.4329433E-02   2.437196       2.511158    
   17.84030      5.6052871E-02   2.638007       2.623441    
   17.29177      5.7830978E-02   2.807428       2.704050    
   16.76011      5.9665482E-02   2.865353       2.905592    
   16.24479      6.1558187E-02   2.772268       3.090945    
   15.74532      6.3510932E-02   3.051670       3.215684    
   15.26120      6.5525629E-02   3.298827       3.201175    
   14.79198      6.7604221E-02   3.750122       3.240659    
   14.33717      6.9748759E-02   3.555866       3.335895    
   13.89635      7.1961328E-02   3.114118       3.441020    
   13.46909      7.4244082E-02   3.141742       3.583759    
   13.05496      7.6599240E-02   3.438917       3.725340    
   12.65356      7.9029121E-02   3.787546       4.105537    
   12.26451      8.1536077E-02   4.298001       4.438298    
   11.88742      8.4122561E-02   4.741192       4.780147    
   11.52192      8.6791091E-02   4.985198       5.202233    
   11.16766      8.9544266E-02   5.337586       5.405553    
   10.82429      9.2384785E-02   5.776201       5.678561    
   10.49148      9.5315412E-02   5.876537       5.896057    
   10.16891      9.8338999E-02   6.815600       5.984890    
   9.856246      0.1014585       7.032117       6.120522    
   9.553200      0.1046770       6.244619       6.294577    
   9.259472      0.1079975       6.255466       6.478147    
   8.974774      0.1114234       5.748683       6.550990    
   8.698831      0.1149580       5.776896       6.575521    
   8.431372      0.1186047       6.341518       6.615540    
   8.172135      0.1223670       7.078127       6.706156    
   7.920870      0.1262487       7.611904       6.887350    
   7.677330      0.1302536       6.604968       7.001181    
   7.441278      0.1343855       6.534410       7.104255    
   7.212485      0.1386485       6.861935       7.050651    
   6.990726      0.1430467       7.295827       7.146098    
   6.775784      0.1475844       8.119515       7.449248    
   6.567452      0.1522661       8.418967       7.690655    
   6.365525      0.1570962       7.621433       7.959052    
   6.169807      0.1620796       7.494012       8.285226    
   5.980107      0.1672211       6.595808       8.746242    
   5.796239      0.1725257       6.353812       8.939776    
   5.618024      0.1779985       7.113138       9.035759    
   5.445289      0.1836450       8.374113       8.835315    
   5.277865      0.1894706       9.660756       8.595649    
   5.115589      0.1954809       10.69924       8.163433    
   4.958302      0.2016820       11.63784       7.922742    
   4.805851      0.2080797       11.49758       7.698899    
   4.658087      0.2146804       12.83954       7.219074    
   4.514867      0.2214905       11.56818       6.980960    
   4.376050      0.2285166       9.824496       6.552948    
   4.241501      0.2357656       8.493633       6.364034    
   4.111090      0.2432445       7.099061       5.958075    
   3.984688      0.2509607       5.624511       5.630913    
   3.862172      0.2589217       4.281662       5.365884    
   3.743424      0.2671351       4.033574       4.899229    
   3.628326      0.2756092       4.037285       4.628925    
   3.516768      0.2843520       3.605136       4.289802    
   3.408639      0.2933722       3.144579       3.816157    
   3.303835      0.3026786       2.782471       3.374090    
   3.202253      0.3122801       2.334126       3.212658    
   3.103795      0.3221862       1.980559       2.787826    
   3.008364      0.3324066       1.817987       2.436592    
   2.915867      0.3429512       1.914520       2.363000    
   2.826214      0.3538303       2.008774       2.093783    
   2.739317      0.3650545       1.920591       1.867134    
   2.655093      0.3766347       1.813578       1.812703    
   2.573457      0.3885823       1.775736       1.634692    
   2.494333      0.4009089       1.634219       1.574746    
   2.417640      0.4136265       1.483350       1.420648    
   2.343306      0.4267475       1.309120       1.314235    
   2.271257      0.4402848       1.117847       1.249582    
   2.201424      0.4542515       1.055333       1.137496    
   2.133738      0.4686611      0.9042802       1.084884    
   2.068133      0.4835280      0.8646989      0.9684262    
   2.004544      0.4988664      0.8855470      0.8689591    
   1.942912      0.5146915      0.8327410      0.8204683    
   1.883174      0.5310184      0.7731731      0.7428411    
   1.825273      0.5478634      0.8364682      0.6873371    
   1.769152      0.5652427      0.8019997      0.6113368    
   1.714756      0.5831733      0.6189516      0.5633382    
   1.662033      0.6016726      0.7232571      0.4922364    
   1.610931      0.6207589      0.8846340      0.4375637    
   1.561401      0.6404505       1.016231      0.4077328    
   1.513393      0.6607669       1.046590      0.4077328    
   1.466861      0.6817277       1.075580      0.3947947    
   1.421760      0.7033534       1.074694      0.3947947    
   1.378046      0.7256652       1.001883      0.3807231    
   1.335676      0.7486846      0.9553854      0.3807231    
   1.294608      0.7724344      0.9051853      0.3655077    
   1.254804      0.7969375      0.8429062      0.3655077    
   1.216223      0.8222179      0.7741928      0.3508371    
   1.178828      0.8483002      0.7284075      0.3508371    
   1.142583      0.8752099      0.7081415      0.3369063    
   1.107453      0.9029732      0.7271442      0.3369063    
   1.073402      0.9316174      0.7487054      0.3230713    
   1.040399      0.9611701      0.7524397      0.3230713    
   1.008410      0.9916603      0.7053707      0.3230713    
  0.9774047       1.023118      0.6189674      0.3103417    
  0.9473529       1.055573      0.5082671      0.3103417    
  0.9182250       1.089058      0.4041577      0.3103417    
  0.8899927       1.123605      0.3235615      0.2988417    
  0.8626285       1.159248      0.2709419      0.2988417    
  0.8361056       1.196021      0.2314376      0.2888389    
  0.8103982       1.233961      0.2090278      0.2888389    
  0.7854812       1.273105      0.2049076      0.2888389    
  0.7613303       1.313490      0.2012680      0.2805488    
  0.7379220       1.355157      0.1981999      0.2805488    
  0.7152334       1.398145      0.1927280      0.2805488    
  0.6932424       1.442497      0.1767296      0.2727227    
  0.6719276       1.488256      0.1561108      0.2727227    
  0.6512681       1.535466      0.1333764      0.2727227    
  0.6312438       1.584174      0.1162693      0.2662783    
  0.6118352       1.634427      0.1066410      0.2662783    
  0.5930234       1.686274      0.1011692      0.2662783    
  0.5747899       1.739766      9.6847452E-02  0.2662783    
  0.5571171       1.794955      9.3995504E-02  0.2601090    
  0.5399877       1.851894      8.9614540E-02  0.2601090    
  0.5233849       1.910640      8.2857691E-02  0.2601090    
  0.5072926       1.971249      7.6989703E-02  0.2601090    
  0.4916950       2.033781      7.4210085E-02  0.2535940    
  0.4765771       2.098296      7.0321254E-02  0.2535940    
  0.4619240       2.164858      6.6072956E-02  0.2535940    
  0.4477214       2.233532      6.4840361E-02  0.2535940    
  0.4339555       2.304384      6.4342402E-02  0.2474977    
  0.4206128       2.377483      6.3610189E-02  0.2474977    
  0.4076804       2.452902      6.2000148E-02  0.2474977    
  0.3951457       2.530712      5.9752796E-02  0.2474977    
  0.3829963       2.610991      5.7418235E-02  0.2419054    
  0.3712204       2.693817      5.6246027E-02  0.2419054    
  0.3598067       2.779270      5.3182732E-02  0.2419054    
  0.3487439       2.867434      4.8117597E-02  0.2419054    
  0.3380212       2.958395      4.2686287E-02  0.2419054    
  0.3276282       3.052241      3.6596786E-02  0.2419054    
  0.3175547       3.149064      3.0148203E-02  0.2355123    
  0.3077910       3.248958      2.5609896E-02  0.2355123    
  0.2983274       3.352021      2.2784585E-02  0.2355123    
  0.2891549       3.458354      2.1153389E-02  0.2355123    
  0.2802644       3.568060      2.0211231E-02  0.2355123    
  0.2716472       3.681245      1.9222161E-02  0.2355123    
  0.2632950       3.798022      1.7672535E-02  0.2293548    
  0.2551996       3.918502      1.6207021E-02  0.2293548    
  0.2473530       4.042805      1.5464725E-02  0.2293548    
  0.2397478       4.171050      1.5015000E-02  0.2293548    
  0.2323764       4.303364      1.4214825E-02  0.2293548    
  0.2252316       4.439875      1.2997358E-02  0.2293548    
  0.2183065       4.580716      1.1909293E-02  0.2293548    
  0.2115943       4.726026      1.1454088E-02  0.2250735    
  0.2050885       4.875944      1.1062689E-02  0.2250735    
  0.1987827       5.030619      1.0753851E-02  0.2250735    
  0.1926708       5.190199      1.0387762E-02  0.2250735    
  0.1867469       5.354843      9.8535810E-03  0.2250735    
  0.1810050       5.524709      9.1576474E-03  0.2250735    
  0.1754397       5.699963      8.4376289E-03  0.2250735    
  0.1700456       5.880777      7.7940137E-03  0.2250735    
  0.1648172       6.067327      7.2609731E-03  0.2250735    
  0.1597497       6.259794      6.7782123E-03  0.2195382    
  0.1548379       6.458367      6.2642535E-03  0.2195382    
  0.1500772       6.663239      6.0515963E-03  0.2195382    
  0.1454628       6.874609      5.6204498E-03  0.2195382    
  0.1409903       7.092686      4.9799648E-03  0.2195382    
  0.1366553       7.317679      4.5310068E-03  0.2195382    
  0.1324537       7.549810      4.2161043E-03  0.2195382    
  0.1283812       7.789305      4.0805256E-03  0.2195382    
  0.1244339       8.036396      3.8839532E-03  0.2195382    
  0.1206080       8.291327      3.6741102E-03  0.2195382    
  0.1168997       8.554343      3.4744218E-03  0.2195382    
  0.1133054       8.825704      3.3005218E-03  0.2195382    
  0.1098217       9.105672      3.1530857E-03  0.2120652    
  0.1064450       9.394522      3.0235387E-03  0.2120652    
  0.1031722       9.692533      2.9022181E-03  0.2120652    
  0.1000000       10.00000      2.7739983E-03  0.2120652    
