 Calculated PSA for the frequency range: 
 Station:   SADO
 Component: BHZ
  0.1000000      Hz and    50.00000      Hz
         200 frequencies distributed logarithmically
 Oscillator damping is   5.000000     % of critical
  Freq.(Hz)       Period(s)      PSA(cm/s^2)  Smooth PSA(cm/s^2)
   50.00000      1.9999998E-02  0.3049861      0.3049861    
   48.46267      2.0634437E-02  0.3041085      0.3039590    
   46.97261      2.1289000E-02  0.3038096      0.3021160    
   45.52837      2.1964328E-02  0.2984300      0.2977529    
   44.12852      2.2661081E-02  0.2910191      0.2934657    
   42.77172      2.3379933E-02  0.2909479      0.2922701    
   41.45663      2.4121592E-02  0.2948433      0.2953285    
   40.18199      2.4886772E-02  0.3001943      0.3002981    
   38.94653      2.5676232E-02  0.3058566      0.3057338    
   37.74905      2.6490729E-02  0.3111506      0.3102330    
   36.58840      2.7331069E-02  0.3136919      0.3125547    
   35.46343      2.8198060E-02  0.3128218      0.3144022    
   34.37305      2.9092560E-02  0.3166928      0.3177376    
   33.31620      3.0015431E-02  0.3236982      0.3195370    
   32.29184      3.0967580E-02  0.3182202      0.3169396    
   31.29897      3.1949930E-02  0.3089003      0.3105288    
   30.33664      3.2963444E-02  0.3044658      0.3097108    
   29.40389      3.4009106E-02  0.3157663      0.3125949    
   28.49982      3.5087943E-02  0.3175527      0.3169598    
   27.62355      3.6201000E-02  0.3175603      0.3199473    
   26.77422      3.7349366E-02  0.3247289      0.3198918    
   25.95100      3.8534161E-02  0.3173864      0.3202653    
   25.15310      3.9756540E-02  0.3186807      0.3206269    
   24.37972      4.1017693E-02  0.3258137      0.3188191    
   23.63013      4.2318851E-02  0.3217926      0.3194525    
   22.90358      4.3661289E-02  0.3089896      0.3213608    
   22.19938      4.5046311E-02  0.3212139      0.3197844    
   21.51682      4.6475261E-02  0.3289942      0.3156207    
   20.85525      4.7949549E-02  0.3179317      0.3112800    
   20.21403      4.9470600E-02  0.3009741      0.3070664    
   19.59251      5.1039908E-02  0.2872861      0.3054909    
   18.99011      5.2658990E-02  0.3001461      0.3149613    
   18.40623      5.4329433E-02  0.3211164      0.3367381    
   17.84030      5.6052871E-02  0.3652839      0.3603816    
   17.29177      5.7830978E-02  0.4098581      0.3833824    
   16.76011      5.9665482E-02  0.4055035      0.4222650    
   16.24479      6.1558187E-02  0.4151500      0.4531786    
   15.74532      6.3510932E-02  0.4602675      0.4810268    
   15.26120      6.5525629E-02  0.4775270      0.4893489    
   14.79198      6.7604221E-02  0.5507653      0.4979937    
   14.33717      6.9748759E-02  0.5769476      0.5100208    
   13.89635      7.1961328E-02  0.5392819      0.5203468    
   13.46909      7.4244082E-02  0.4660168      0.5434659    
   13.05496      7.6599240E-02  0.4993396      0.5692691    
   12.65356      7.9029121E-02  0.5325502      0.6082052    
   12.26451      8.1536077E-02  0.6393596      0.6341465    
   11.88742      8.4122561E-02  0.7313877      0.6645065    
   11.52192      8.6791091E-02  0.7307119      0.6815780    
   11.16766      8.9544266E-02  0.7269937      0.6858155    
   10.82429      9.2384785E-02  0.7468128      0.7029136    
   10.49148      9.5315412E-02  0.7088967      0.7131950    
   10.16891      9.8338999E-02  0.6359120      0.7212864    
   9.856246      0.1014585      0.7197150      0.7353136    
   9.553200      0.1046770      0.6864333      0.7464610    
   9.259472      0.1079975      0.7318922      0.7600973    
   8.974774      0.1114234      0.7391955      0.7828213    
   8.698831      0.1149580      0.7863016      0.8145475    
   8.431372      0.1186047      0.8709836      0.8351486    
   8.172135      0.1223670      0.8384668      0.8464947    
   7.920870      0.1262487      0.8831760      0.8676382    
   7.677330      0.1302536      0.9361371      0.8833160    
   7.441278      0.1343855      0.9404778      0.8872564    
   7.212485      0.1386485       1.005879      0.8825694    
   6.990726      0.1430467      0.8831263      0.8932298    
   6.775784      0.1475844      0.8558672      0.9141805    
   6.567452      0.1522661      0.9401546      0.9240233    
   6.365525      0.1570962      0.9200265      0.9281848    
   6.169807      0.1620796      0.9080836      0.9306114    
   5.980107      0.1672211      0.7656534      0.9646244    
   5.796239      0.1725257      0.8216392      0.9833152    
   5.618024      0.1779985      0.9355457      0.9929547    
   5.445289      0.1836450       1.044846       1.001596    
   5.277865      0.1894706       1.033629      0.9982036    
   5.115589      0.1954809      0.9861092       1.007426    
   4.958302      0.2016820      0.9455981       1.006500    
   4.805851      0.2080797      0.9725347       1.003975    
   4.658087      0.2146804       1.169194      0.9879809    
   4.514867      0.2214905       1.270250      0.9701692    
   4.376050      0.2285166       1.258220      0.9373028    
   4.241501      0.2357656       1.169750      0.9241362    
   4.111090      0.2432445      0.9836255      0.8930003    
   3.984688      0.2509607       1.047999      0.8618386    
   3.862172      0.2589217      0.9371410      0.8386087    
   3.743424      0.2671351      0.9987124      0.7955218    
   3.628326      0.2756092       1.039811      0.7616851    
   3.516768      0.2843520      0.9216276      0.7397024    
   3.408639      0.2933722      0.8695296      0.7076845    
   3.303835      0.3026786      0.8486481      0.6713557    
   3.202253      0.3122801      0.7275361      0.6500389    
   3.103795      0.3221862      0.5961242      0.6153738    
   3.008364      0.3324066      0.5056373      0.5812298    
   2.915867      0.3429512      0.4742576      0.5670547    
   2.826214      0.3538303      0.5188085      0.5307047    
   2.739317      0.3650545      0.5623254      0.4978752    
   2.655093      0.3766347      0.5500945      0.4847847    
   2.573457      0.3885823      0.4993345      0.4600904    
   2.494333      0.4009089      0.4764629      0.4418381    
   2.417640      0.4136265      0.4408703      0.4103436    
   2.343306      0.4267475      0.3691223      0.3903860    
   2.271257      0.4402848      0.3397642      0.3783019    
   2.201424      0.4542515      0.2992640      0.3544045    
   2.133738      0.4686611      0.3105149      0.3436065    
   2.068133      0.4835280      0.3486134      0.3151069    
   2.004544      0.4988664      0.3748651      0.2883300    
   1.942912      0.5146915      0.3498946      0.2735607    
   1.883174      0.5310184      0.2786924      0.2512456    
   1.825273      0.5478634      0.2753357      0.2339417    
   1.769152      0.5652427      0.3135618      0.2108961    
   1.714756      0.5831733      0.3256958      0.1965070    
   1.662033      0.6016726      0.3117898      0.1742580    
   1.610931      0.6207589      0.3288287      0.1556013    
   1.561401      0.6404505      0.3451650      0.1460691    
   1.513393      0.6607669      0.3454165      0.1460691    
   1.466861      0.6817277      0.3344402      0.1427703    
   1.421760      0.7033534      0.3035440      0.1427703    
   1.378046      0.7256652      0.2351681      0.1397010    
   1.335676      0.7486846      0.2088072      0.1397010    
   1.294608      0.7724344      0.2043815      0.1361580    
   1.254804      0.7969375      0.2157219      0.1361580    
   1.216223      0.8222179      0.2265887      0.1321375    
   1.178828      0.8483002      0.2324502      0.1321375    
   1.142583      0.8752099      0.2200837      0.1281570    
   1.107453      0.9029732      0.2111676      0.1281570    
   1.073402      0.9316174      0.1947514      0.1245879    
   1.040399      0.9611701      0.1851418      0.1245879    
   1.008410      0.9916603      0.1790230      0.1245879    
  0.9774047       1.023118      0.1589127      0.1211717    
  0.9473529       1.055573      0.1467690      0.1211717    
  0.9182250       1.089058      0.1457504      0.1211717    
  0.8899927       1.123605      0.1812761      0.1180374    
  0.8626285       1.159248      0.2082448      0.1180374    
  0.8361056       1.196021      0.2084447      0.1155514    
  0.8103982       1.233961      0.1769824      0.1155514    
  0.7854812       1.273105      0.1694454      0.1155514    
  0.7613303       1.313490      0.1572118      0.1133093    
  0.7379220       1.355157      0.1575711      0.1133093    
  0.7152334       1.398145      0.1739708      0.1133093    
  0.6932424       1.442497      0.1657555      0.1114309    
  0.6719276       1.488256      0.1537363      0.1114309    
  0.6512681       1.535466      0.1390292      0.1114309    
  0.6312438       1.584174      0.1226095      0.1093995    
  0.6118352       1.634427      0.1037188      0.1093995    
  0.5930234       1.686274      8.9342691E-02  0.1093995    
  0.5747899       1.739766      7.3485985E-02  0.1093995    
  0.5571171       1.794955      5.9772417E-02  0.1069333    
  0.5399877       1.851894      5.3783286E-02  0.1069333    
  0.5233849       1.910640      4.9107913E-02  0.1069333    
  0.5072926       1.971249      4.4113211E-02  0.1069333    
  0.4916950       2.033781      4.5527581E-02  0.1041424    
  0.4765771       2.098296      4.6990205E-02  0.1041424    
  0.4619240       2.164858      4.5320895E-02  0.1041424    
  0.4477214       2.233532      4.0711746E-02  0.1041424    
  0.4339555       2.304384      3.8397517E-02  0.1015555    
  0.4206128       2.377483      3.8543023E-02  0.1015555    
  0.4076804       2.452902      3.7438374E-02  0.1015555    
  0.3951457       2.530712      3.6092486E-02  0.1015555    
  0.3829963       2.610991      3.7444774E-02  9.9671081E-02
  0.3712204       2.693817      3.3990096E-02  9.9671081E-02
  0.3598067       2.779270      3.2017160E-02  9.9671081E-02
  0.3487439       2.867434      3.4922380E-02  9.9671081E-02
  0.3380212       2.958395      3.6064114E-02  9.9671081E-02
  0.3276282       3.052241      3.5239018E-02  9.9671081E-02
  0.3175547       3.149064      3.4087349E-02  9.7782217E-02
  0.3077910       3.248958      3.1749442E-02  9.7782217E-02
  0.2983274       3.352021      2.8696332E-02  9.7782217E-02
  0.2891549       3.458354      2.5864258E-02  9.7782217E-02
  0.2802644       3.568060      2.5565300E-02  9.7782217E-02
  0.2716472       3.681245      2.8749716E-02  9.7782217E-02
  0.2632950       3.798022      3.3325374E-02  9.5436789E-02
  0.2551996       3.918502      3.6154799E-02  9.5436789E-02
  0.2473530       4.042805      3.6492951E-02  9.5436789E-02
  0.2397478       4.171050      3.5585556E-02  9.5436789E-02
  0.2323764       4.303364      3.1833541E-02  9.5436789E-02
  0.2252316       4.439875      2.7126245E-02  9.5436789E-02
  0.2183065       4.580716      2.3900136E-02  9.5436789E-02
  0.2115943       4.726026      2.2118056E-02  9.2906468E-02
  0.2050885       4.875944      2.1362426E-02  9.2906468E-02
  0.1987827       5.030619      2.1535661E-02  9.2906468E-02
  0.1926708       5.190199      2.1577371E-02  9.2906468E-02
  0.1867469       5.354843      2.1286814E-02  9.2906468E-02
  0.1810050       5.524709      2.1118809E-02  9.2906468E-02
  0.1754397       5.699963      2.0596089E-02  9.2906468E-02
  0.1700456       5.880777      1.9076701E-02  9.2906468E-02
  0.1648172       6.067327      1.7265497E-02  9.2906468E-02
  0.1597497       6.259794      1.4981055E-02  9.0474434E-02
  0.1548379       6.458367      1.2762036E-02  9.0474434E-02
  0.1500772       6.663239      1.0870087E-02  9.0474434E-02
  0.1454628       6.874609      9.3316371E-03  9.0474434E-02
  0.1409903       7.092686      8.1934165E-03  9.0474434E-02
  0.1366553       7.317679      7.3288889E-03  9.0474434E-02
  0.1324537       7.549810      6.5725134E-03  9.0474434E-02
  0.1283812       7.789305      5.8738068E-03  9.0474434E-02
  0.1244339       8.036396      5.2808267E-03  9.0474434E-02
  0.1206080       8.291327      4.8423503E-03  9.0474434E-02
  0.1168997       8.554343      4.5341500E-03  9.0474434E-02
  0.1133054       8.825704      4.2626136E-03  9.0474434E-02
  0.1098217       9.105672      3.9524087E-03  8.7796301E-02
  0.1064450       9.394522      3.5919249E-03  8.7796301E-02
  0.1031722       9.692533      3.4858875E-03  8.7796301E-02
  0.1000000       10.00000      3.3562933E-03  8.7796301E-02
