 Calculated PSA for the frequency range: 
 Station:   PKRO
 Component: HHN
  0.1000000      Hz and    50.00000      Hz
         200 frequencies distributed logarithmically
 Oscillator damping is   5.000000     % of critical
  Freq.(Hz)       Period(s)      PSA(cm/s^2)  Smooth PSA(cm/s^2)
   50.00000      1.9999998E-02   3.675558       3.675558    
   48.46267      2.0634437E-02   3.677573       3.678435    
   46.97261      2.1289000E-02   3.679298       3.679206    
   45.52837      2.1964328E-02   3.680748       3.681041    
   44.12852      2.2661081E-02   3.683078       3.683675    
   42.77172      2.3379933E-02   3.687197       3.688395    
   41.45663      2.4121592E-02   3.694909       3.697157    
   40.18199      2.4886772E-02   3.709364       3.708804    
   38.94653      2.5676232E-02   3.722141       3.718512    
   37.74905      2.6490729E-02   3.724032       3.725835    
   36.58840      2.7331069E-02   3.731331       3.728773    
   35.46343      2.8198060E-02   3.730957       3.736049    
   34.37305      2.9092560E-02   3.745859       3.749471    
   33.31620      3.0015431E-02   3.771597       3.772534    
   32.29184      3.0967580E-02   3.800145       3.798048    
   31.29897      3.1949930E-02   3.822401       3.826776    
   30.33664      3.2963444E-02   3.857782       3.842286    
   29.40389      3.4009106E-02   3.846675       3.828537    
   28.49982      3.5087943E-02   3.781153       3.783996    
   27.62355      3.6201000E-02   3.724160       3.741858    
   26.77422      3.7349366E-02   3.720260       3.740051    
   25.95100      3.8534161E-02   3.775734       3.770871    
   25.15310      3.9756540E-02   3.816619       3.805942    
   24.37972      4.1017693E-02   3.825473       3.853165    
   23.63013      4.2318851E-02   3.864167       3.875264    
   22.90358      4.3661289E-02   3.906403       3.869214    
   22.19938      4.5046311E-02   3.905015       3.904315    
   21.51682      4.6475261E-02   3.845014       3.941994    
   20.85525      4.7949549E-02   4.000976       3.966990    
   20.21403      4.9470600E-02   4.052563       4.002016    
   19.59251      5.1039908E-02   4.031382       4.062039    
   18.99011      5.2658990E-02   4.080146       4.095953    
   18.40623      5.4329433E-02   4.145128       4.108161    
   17.84030      5.6052871E-02   4.170547       4.131171    
   17.29177      5.7830978E-02   4.113600       4.148139    
   16.76011      5.9665482E-02   4.146435       4.233539    
   16.24479      6.1558187E-02   4.164985       4.263118    
   15.74532      6.3510932E-02   4.354090       4.283709    
   15.26120      6.5525629E-02   4.451577       4.304444    
   14.79198      6.7604221E-02   4.348026       4.349198    
   14.33717      6.9748759E-02   4.237142       4.418213    
   13.89635      7.1961328E-02   4.428854       4.522413    
   13.46909      7.4244082E-02   4.459713       4.699523    
   13.05496      7.6599240E-02   4.648091       4.917328    
   12.65356      7.9029121E-02   5.083488       5.245250    
   12.26451      8.1536077E-02   5.691342       5.408676    
   11.88742      8.4122561E-02   5.872664       5.531043    
   11.52192      8.6791091E-02   5.901866       5.640018    
   11.16766      8.9544266E-02   5.875981       5.700924    
   10.82429      9.2384785E-02   5.736260       5.844109    
   10.49148      9.5315412E-02   5.438650       5.928810    
   10.16891      9.8338999E-02   5.519896       6.222303    
   9.856246      0.1014585       6.188171       6.467447    
   9.553200      0.1046770       6.372150       6.776433    
   9.259472      0.1079975       6.453646       7.159191    
   8.974774      0.1114234       7.055942       7.616003    
   8.698831      0.1149580       7.680470       7.839867    
   8.431372      0.1186047       8.353297       8.096890    
   8.172135      0.1223670       8.965840       8.234463    
   7.920870      0.1262487       9.563848       8.376169    
   7.677330      0.1302536       10.00676       8.495146    
   7.441278      0.1343855       9.291860       8.707976    
   7.212485      0.1386485       8.626516       8.785775    
   6.990726      0.1430467       8.604185       8.891679    
   6.775784      0.1475844       7.839045       9.092058    
   6.567452      0.1522661       8.072628       9.452943    
   6.365525      0.1570962       7.881355       9.907732    
   6.169807      0.1620796       8.912977       10.31913    
   5.980107      0.1672211       9.404902       10.92969    
   5.796239      0.1725257       9.797149       11.28185    
   5.618024      0.1779985       9.163133       11.57031    
   5.445289      0.1836450       9.078983       11.89383    
   5.277865      0.1894706       11.17170       12.04616    
   5.115589      0.1954809       14.37910       12.31425    
   4.958302      0.2016820       16.38570       12.36477    
   4.805851      0.2080797       16.17779       12.42793    
   4.658087      0.2146804       15.40827       12.19138    
   4.514867      0.2214905       15.60945       11.94161    
   4.376050      0.2285166       15.27860       11.49951    
   4.241501      0.2357656       13.53032       11.29977    
   4.111090      0.2432445       12.59439       10.89018    
   3.984688      0.2509607       13.40340       10.52354    
   3.862172      0.2589217       14.78820       10.38311    
   3.743424      0.2671351       13.84686       9.950715    
   3.628326      0.2756092       11.40011       9.635749    
   3.516768      0.2843520       9.083049       9.313703    
   3.408639      0.2933722       9.144427       8.809788    
   3.303835      0.3026786       8.721625       8.473971    
   3.202253      0.3122801       7.651793       8.393247    
   3.103795      0.3221862       6.696502       7.976270    
   3.008364      0.3324066       5.952095       7.488258    
   2.915867      0.3429512       5.226163       7.241737    
   2.826214      0.3538303       5.203071       6.791127    
   2.739317      0.3650545       5.016916       6.374296    
   2.655093      0.3766347       5.615821       6.139901    
   2.573457      0.3885823       6.264213       5.761856    
   2.494333      0.4009089       5.983448       5.444321    
   2.417640      0.4136265       5.427861       4.973938    
   2.343306      0.4267475       4.799783       4.585801    
   2.271257      0.4402848       5.080328       4.341704    
   2.201424      0.4542515       5.428833       3.940116    
   2.133738      0.4686611       5.338567       3.747128    
   2.068133      0.4835280       5.039758       3.379786    
   2.004544      0.4988664       4.714474       3.080492    
   1.942912      0.5146915       5.867498       2.901118    
   1.883174      0.5310184       6.912928       2.648393    
   1.825273      0.5478634       7.664340       2.442490    
   1.769152      0.5652427       7.600949       2.184809    
   1.714756      0.5831733       6.683053       2.011774    
   1.662033      0.6016726       5.383673       1.763437    
   1.610931      0.6207589       4.240642       1.566709    
   1.561401      0.6404505       3.429270       1.463326    
   1.513393      0.6607669       3.076047       1.463326    
   1.466861      0.6817277       2.957407       1.422145    
   1.421760      0.7033534       2.897842       1.422145    
   1.378046      0.7256652       2.817922       1.386922    
   1.335676      0.7486846       2.579266       1.386922    
   1.294608      0.7724344       2.215343       1.351258    
   1.254804      0.7969375       1.849651       1.351258    
   1.216223      0.8222179       1.580301       1.316676    
   1.178828      0.8483002       1.558105       1.316676    
   1.142583      0.8752099       1.510362       1.275732    
   1.107453      0.9029732       1.346043       1.275732    
   1.073402      0.9316174       1.128222       1.227766    
   1.040399      0.9611701      0.9655740       1.227766    
   1.008410      0.9916603      0.9026777       1.227766    
  0.9774047       1.023118      0.8465380       1.181594    
  0.9473529       1.055573      0.7242167       1.181594    
  0.9182250       1.089058      0.6132682       1.181594    
  0.8899927       1.123605      0.5916559       1.139964    
  0.8626285       1.159248      0.5399281       1.139964    
  0.8361056       1.196021      0.4863370       1.103728    
  0.8103982       1.233961      0.4335809       1.103728    
  0.7854812       1.273105      0.3885399       1.103728    
  0.7613303       1.313490      0.3834504       1.063962    
  0.7379220       1.355157      0.4258947       1.063962    
  0.7152334       1.398145      0.4368021       1.063962    
  0.6932424       1.442497      0.3971712       1.019872    
  0.6719276       1.488256      0.3254007       1.019872    
  0.6512681       1.535466      0.2904186       1.019872    
  0.6312438       1.584174      0.2870733      0.9758040    
  0.6118352       1.634427      0.2649808      0.9758040    
  0.5930234       1.686274      0.2289511      0.9758040    
  0.5747899       1.739766      0.1873603      0.9758040    
  0.5571171       1.794955      0.1827999      0.9339076    
  0.5399877       1.851894      0.1776829      0.9339076    
  0.5233849       1.910640      0.1594864      0.9339076    
  0.5072926       1.971249      0.1461743      0.9339076    
  0.4916950       2.033781      0.1349806      0.8945267    
  0.4765771       2.098296      0.1244126      0.8945267    
  0.4619240       2.164858      0.1145820      0.8945267    
  0.4477214       2.233532      0.1093335      0.8945267    
  0.4339555       2.304384      0.1088082      0.8421795    
  0.4206128       2.377483      0.1069519      0.8421795    
  0.4076804       2.452902      0.1013805      0.8421795    
  0.3951457       2.530712      9.2636928E-02  0.8421795    
  0.3829963       2.610991      8.3136521E-02  0.7775971    
  0.3712204       2.693817      7.6892354E-02  0.7775971    
  0.3598067       2.779270      7.7420585E-02  0.7775971    
  0.3487439       2.867434      7.5009465E-02  0.7775971    
  0.3380212       2.958395      7.0123047E-02  0.7775971    
  0.3276282       3.052241      6.5010950E-02  0.7775971    
  0.3175547       3.149064      6.0919121E-02  0.7035462    
  0.3077910       3.248958      5.7252262E-02  0.7035462    
  0.2983274       3.352021      5.4086477E-02  0.7035462    
  0.2891549       3.458354      5.1614113E-02  0.7035462    
  0.2802644       3.568060      4.9262825E-02  0.7035462    
  0.2716472       3.681245      4.6494078E-02  0.7035462    
  0.2632950       3.798022      4.3544248E-02  0.6285744    
  0.2551996       3.918502      4.0444218E-02  0.6285744    
  0.2473530       4.042805      3.7074562E-02  0.6285744    
  0.2397478       4.171050      3.3792023E-02  0.6285744    
  0.2323764       4.303364      3.0881975E-02  0.6285744    
  0.2252316       4.439875      2.8200781E-02  0.6285744    
  0.2183065       4.580716      2.5663305E-02  0.6285744    
  0.2115943       4.726026      2.3246123E-02  0.5620416    
  0.2050885       4.875944      2.0967707E-02  0.5620416    
  0.1987827       5.030619      1.8934362E-02  0.5620416    
  0.1926708       5.190199      1.7192282E-02  0.5620416    
  0.1867469       5.354843      1.6094010E-02  0.5620416    
  0.1810050       5.524709      1.5511970E-02  0.5620416    
  0.1754397       5.699963      1.4813145E-02  0.5620416    
  0.1700456       5.880777      1.4025642E-02  0.5620416    
  0.1648172       6.067327      1.3192606E-02  0.5620416    
  0.1597497       6.259794      1.2372768E-02  0.5084680    
  0.1548379       6.458367      1.1503979E-02  0.5084680    
  0.1500772       6.663239      1.0653422E-02  0.5084680    
  0.1454628       6.874609      1.0207305E-02  0.5084680    
  0.1409903       7.092686      9.7625228E-03  0.5084680    
  0.1366553       7.317679      9.3282787E-03  0.5084680    
  0.1324537       7.549810      8.9365030E-03  0.5084680    
  0.1283812       7.789305      8.5341400E-03  0.5084680    
  0.1244339       8.036396      8.1033194E-03  0.5084680    
  0.1206080       8.291327      7.6964665E-03  0.5084680    
  0.1168997       8.554343      7.3043974E-03  0.5084680    
  0.1133054       8.825704      6.9492380E-03  0.5084680    
  0.1098217       9.105672      6.6134306E-03  0.4665334    
  0.1064450       9.394522      6.2859608E-03  0.4665334    
  0.1031722       9.692533      5.9623290E-03  0.4665334    
  0.1000000       10.00000      5.6291833E-03  0.4665334    
