 Calculated PSA for the frequency range: 
 Station:   A64 
 Component: HHN
  0.1000000      Hz and    50.00000      Hz
         200 frequencies distributed logarithmically
 Oscillator damping is   5.000000     % of critical
  Freq.(Hz)       Period(s)      PSA(cm/s^2)  Smooth PSA(cm/s^2)
   50.00000      1.9999998E-02  0.1983046      0.1983046    
   48.46267      2.0634437E-02  0.1992812      0.1997186    
   46.97261      2.1289000E-02  0.2001561      0.2000435    
   45.52837      2.1964328E-02  0.2006931      0.2004914    
   44.12852      2.2661081E-02  0.2006250      0.2001858    
   42.77172      2.3379933E-02  0.1992391      0.1995698    
   41.45663      2.4121592E-02  0.1988451      0.1997833    
   40.18199      2.4886772E-02  0.2012656      0.2010603    
   38.94653      2.5676232E-02  0.2030702      0.2020797    
   37.74905      2.6490729E-02  0.2019034      0.2021254    
   36.58840      2.7331069E-02  0.2014028      0.2024644    
   35.46343      2.8198060E-02  0.2040869      0.2054133    
   34.37305      2.9092560E-02  0.2107501      0.2133801    
   33.31620      3.0015431E-02  0.2253031      0.2250316    
   32.29184      3.0967580E-02  0.2390414      0.2334007    
   31.29897      3.1949930E-02  0.2358576      0.2343091    
   30.33664      3.2963444E-02  0.2280284      0.2280062    
   29.40389      3.4009106E-02  0.2201325      0.2211574    
   28.49982      3.5087943E-02  0.2153114      0.2172149    
   27.62355      3.6201000E-02  0.2162009      0.2184337    
   26.77422      3.7349366E-02  0.2237887      0.2255566    
   25.95100      3.8534161E-02  0.2366801      0.2307181    
   25.15310      3.9756540E-02  0.2316854      0.2338066    
   24.37972      4.1017693E-02  0.2330544      0.2401185    
   23.63013      4.2318851E-02  0.2460822      0.2489730    
   22.90358      4.3661289E-02  0.2496520      0.2554767    
   22.19938      4.5046311E-02  0.2671036      0.2620813    
   21.51682      4.6475261E-02  0.2814915      0.2677389    
   20.85525      4.7949549E-02  0.2660773      0.2764574    
   20.21403      4.9470600E-02  0.2743703      0.2883647    
   19.59251      5.1039908E-02  0.2932445      0.2988821    
   18.99011      5.2658990E-02  0.3266401      0.3145159    
   18.40623      5.4329433E-02  0.3340783      0.3302843    
   17.84030      5.6052871E-02  0.3442466      0.3470106    
   17.29177      5.7830978E-02  0.3532119      0.3561835    
   16.76011      5.9665482E-02  0.3768761      0.3591756    
   16.24479      6.1558187E-02  0.3725046      0.3703418    
   15.74532      6.3510932E-02  0.3540650      0.3812164    
   15.26120      6.5525629E-02  0.3541493      0.3828960    
   14.79198      6.7604221E-02  0.4112441      0.3847230    
   14.33717      6.9748759E-02  0.4184593      0.3836433    
   13.89635      7.1961328E-02  0.3929733      0.3858757    
   13.46909      7.4244082E-02  0.3896658      0.3937260    
   13.05496      7.6599240E-02  0.3649464      0.3990896    
   12.65356      7.9029121E-02  0.3696918      0.4114752    
   12.26451      8.1536077E-02  0.4091011      0.4218434    
   11.88742      8.4122561E-02  0.4487895      0.4308863    
   11.52192      8.6791091E-02  0.4570093      0.4389912    
   11.16766      8.9544266E-02  0.4596243      0.4381835    
   10.82429      9.2384785E-02  0.4759188      0.4496225    
   10.49148      9.5315412E-02  0.4620094      0.4571990    
   10.16891      9.8338999E-02  0.4297853      0.4585475    
   9.856246      0.1014585      0.4317222      0.4624338    
   9.553200      0.1046770      0.4726432      0.4648926    
   9.259472      0.1079975      0.4772896      0.4583149    
   8.974774      0.1114234      0.4560451      0.4539791    
   8.698831      0.1149580      0.4634274      0.4553078    
   8.431372      0.1186047      0.4958728      0.4562623    
   8.172135      0.1223670      0.4842122      0.4528871    
   7.920870      0.1262487      0.4101420      0.4449538    
   7.677330      0.1302536      0.4186513      0.4398323    
   7.441278      0.1343855      0.4487958      0.4495400    
   7.212485      0.1386485      0.4751069      0.4585407    
   6.990726      0.1430467      0.4412394      0.4691320    
   6.775784      0.1475844      0.3912193      0.4912080    
   6.567452      0.1522661      0.3774436      0.5026395    
   6.365525      0.1570962      0.4158314      0.5188781    
   6.169807      0.1620796      0.4912391      0.5344925    
   5.980107      0.1672211      0.5308380      0.5508842    
   5.796239      0.1725257      0.5755501      0.5647319    
   5.618024      0.1779985      0.6117065      0.5768650    
   5.445289      0.1836450      0.6466998      0.5809789    
   5.277865      0.1894706      0.6494442      0.5744650    
   5.115589      0.1954809      0.6556861      0.5717291    
   4.958302      0.2016820      0.6537201      0.5726768    
   4.805851      0.2080797      0.6528668      0.5720817    
   4.658087      0.2146804      0.6939434      0.5610233    
   4.514867      0.2214905      0.6536998      0.5527920    
   4.376050      0.2285166      0.6842068      0.5345297    
   4.241501      0.2357656      0.6813711      0.5241908    
   4.111090      0.2432445      0.5923963      0.5022597    
   3.984688      0.2509607      0.4997584      0.4853154    
   3.862172      0.2589217      0.4572146      0.4694950    
   3.743424      0.2671351      0.4771636      0.4466654    
   3.628326      0.2756092      0.4338017      0.4321002    
   3.516768      0.2843520      0.3963977      0.4165751    
   3.408639      0.2933722      0.4039286      0.3923294    
   3.303835      0.3026786      0.4222110      0.3724001    
   3.202253      0.3122801      0.4088830      0.3622694    
   3.103795      0.3221862      0.3799355      0.3404098    
   3.008364      0.3324066      0.3418181      0.3200131    
   2.915867      0.3429512      0.3217808      0.3116736    
   2.826214      0.3538303      0.3377553      0.2948366    
   2.739317      0.3650545      0.3090134      0.2780024    
   2.655093      0.3766347      0.3005357      0.2714618    
   2.573457      0.3885823      0.2941504      0.2580841    
   2.494333      0.4009089      0.2698179      0.2509377    
   2.417640      0.4136265      0.2353698      0.2378834    
   2.343306      0.4267475      0.2484993      0.2290763    
   2.271257      0.4402848      0.2540406      0.2219309    
   2.201424      0.4542515      0.2438137      0.2101410    
   2.133738      0.4686611      0.2271281      0.2039525    
   2.068133      0.4835280      0.2054572      0.1946312    
   2.004544      0.4988664      0.1779356      0.1855425    
   1.942912      0.5146915      0.1649879      0.1778307    
   1.883174      0.5310184      0.2037321      0.1669909    
   1.825273      0.5478634      0.2236547      0.1569761    
   1.769152      0.5652427      0.2176120      0.1436760    
   1.714756      0.5831733      0.1928755      0.1332639    
   1.662033      0.6016726      0.1664993      0.1185120    
   1.610931      0.6207589      0.1464871      0.1055766    
   1.561401      0.6404505      0.1323289      9.9303000E-02
   1.513393      0.6607669      0.1478952      9.9303000E-02
   1.466861      0.6817277      0.1625919      9.7078092E-02
   1.421760      0.7033534      0.1688735      9.7078092E-02
   1.378046      0.7256652      0.1805761      9.4997510E-02
   1.335676      0.7486846      0.1754972      9.4997510E-02
   1.294608      0.7724344      0.1626880      9.2728749E-02
   1.254804      0.7969375      0.1569882      9.2728749E-02
   1.216223      0.8222179      0.1427753      9.0688325E-02
   1.178828      0.8483002      0.1450649      9.0688325E-02
   1.142583      0.8752099      0.1502542      8.8689774E-02
   1.107453      0.9029732      0.1517407      8.8689774E-02
   1.073402      0.9316174      0.1548276      8.6714193E-02
   1.040399      0.9611701      0.1526555      8.6714193E-02
   1.008410      0.9916603      0.1451814      8.6714193E-02
  0.9774047       1.023118      0.1368211      8.4936485E-02
  0.9473529       1.055573      0.1297404      8.4936485E-02
  0.9182250       1.089058      0.1215210      8.4936485E-02
  0.8899927       1.123605      0.1361860      8.3461650E-02
  0.8626285       1.159248      0.1361698      8.3461650E-02
  0.8361056       1.196021      0.1199084      8.1827618E-02
  0.8103982       1.233961      0.1024084      8.1827618E-02
  0.7854812       1.273105      0.1004985      8.1827618E-02
  0.7613303       1.313490      9.8254599E-02  8.0105484E-02
  0.7379220       1.355157      9.9216022E-02  8.0105484E-02
  0.7152334       1.398145      9.8690137E-02  8.0105484E-02
  0.6932424       1.442497      9.4234951E-02  7.8451864E-02
  0.6719276       1.488256      9.3554728E-02  7.8451864E-02
  0.6512681       1.535466      9.6077576E-02  7.8451864E-02
  0.6312438       1.584174      0.1144656      7.6934762E-02
  0.6118352       1.634427      0.1269436      7.6934762E-02
  0.5930234       1.686274      0.1281266      7.6934762E-02
  0.5747899       1.739766      0.1261686      7.6934762E-02
  0.5571171       1.794955      0.1191500      7.5609788E-02
  0.5399877       1.851894      0.1102807      7.5609788E-02
  0.5233849       1.910640      9.9652030E-02  7.5609788E-02
  0.5072926       1.971249      8.7701410E-02  7.5609788E-02
  0.4916950       2.033781      7.2569087E-02  7.4543893E-02
  0.4765771       2.098296      5.9891228E-02  7.4543893E-02
  0.4619240       2.164858      5.3042568E-02  7.4543893E-02
  0.4477214       2.233532      4.7689449E-02  7.4543893E-02
  0.4339555       2.304384      4.4721555E-02  7.3591851E-02
  0.4206128       2.377483      4.8118934E-02  7.3591851E-02
  0.4076804       2.452902      4.9457129E-02  7.3591851E-02
  0.3951457       2.530712      4.7180723E-02  7.3591851E-02
  0.3829963       2.610991      4.7730017E-02  7.2207376E-02
  0.3712204       2.693817      4.6667881E-02  7.2207376E-02
  0.3598067       2.779270      4.4448625E-02  7.2207376E-02
  0.3487439       2.867434      4.0514398E-02  7.2207376E-02
  0.3380212       2.958395      3.7323594E-02  7.2207376E-02
  0.3276282       3.052241      3.4149069E-02  7.2207376E-02
  0.3175547       3.149064      3.0368457E-02  7.0578910E-02
  0.3077910       3.248958      2.6468821E-02  7.0578910E-02
  0.2983274       3.352021      2.4040228E-02  7.0578910E-02
  0.2891549       3.458354      2.2587849E-02  7.0578910E-02
  0.2802644       3.568060      2.0758534E-02  7.0578910E-02
  0.2716472       3.681245      1.8864583E-02  7.0578910E-02
  0.2632950       3.798022      1.7292749E-02  6.8980724E-02
  0.2551996       3.918502      1.6164158E-02  6.8980724E-02
  0.2473530       4.042805      1.5150250E-02  6.8980724E-02
  0.2397478       4.171050      1.4040300E-02  6.8980724E-02
  0.2323764       4.303364      1.2818481E-02  6.8980724E-02
  0.2252316       4.439875      1.2009308E-02  6.8980724E-02
  0.2183065       4.580716      1.2402247E-02  6.8980724E-02
  0.2115943       4.726026      1.2574633E-02  6.7619242E-02
  0.2050885       4.875944      1.1198680E-02  6.7619242E-02
  0.1987827       5.030619      9.8072262E-03  6.7619242E-02
  0.1926708       5.190199      8.3233276E-03  6.7619242E-02
  0.1867469       5.354843      7.9316907E-03  6.7619242E-02
  0.1810050       5.524709      7.1046855E-03  6.7619242E-02
  0.1754397       5.699963      6.3300752E-03  6.7619242E-02
  0.1700456       5.880777      5.4873968E-03  6.7619242E-02
  0.1648172       6.067327      4.8021008E-03  6.7619242E-02
  0.1597497       6.259794      4.3727425E-03  6.6520579E-02
  0.1548379       6.458367      4.0302821E-03  6.6520579E-02
  0.1500772       6.663239      3.6612719E-03  6.6520579E-02
  0.1454628       6.874609      3.4358415E-03  6.6520579E-02
  0.1409903       7.092686      3.6466282E-03  6.6520579E-02
  0.1366553       7.317679      3.6538085E-03  6.6520579E-02
  0.1324537       7.549810      3.4399705E-03  6.6520579E-02
  0.1283812       7.789305      3.0861152E-03  6.6520579E-02
  0.1244339       8.036396      2.6493152E-03  6.6520579E-02
  0.1206080       8.291327      2.2073523E-03  6.6520579E-02
  0.1168997       8.554343      1.9970441E-03  6.6520579E-02
  0.1133054       8.825704      1.8736034E-03  6.6520579E-02
  0.1098217       9.105672      1.7784630E-03  6.5622076E-02
  0.1064450       9.394522      1.6916398E-03  6.5622076E-02
  0.1031722       9.692533      1.5994302E-03  6.5622076E-02
  0.1000000       10.00000      1.5028490E-03  6.5622076E-02
