 Calculated PSA for the frequency range: 
 Station:   A11 
 Component: HHN
  0.1000000      Hz and    50.00000      Hz
         200 frequencies distributed logarithmically
 Oscillator damping is   5.000000     % of critical
  Freq.(Hz)       Period(s)      PSA(cm/s^2)  Smooth PSA(cm/s^2)
   50.00000      1.9999998E-02  0.1924950      0.1924950    
   48.46267      2.0634437E-02  0.1926935      0.1927909    
   46.97261      2.1289000E-02  0.1928882      0.1929779    
   45.52837      2.1964328E-02  0.1933521      0.1934922    
   44.12852      2.2661081E-02  0.1942365      0.1942504    
   42.77172      2.3379933E-02  0.1951625      0.1951957    
   41.45663      2.4121592E-02  0.1961882      0.1961381    
   40.18199      2.4886772E-02  0.1970635      0.1967708    
   38.94653      2.5676232E-02  0.1970607      0.1971449    
   37.74905      2.6490729E-02  0.1973103      0.1977678    
   36.58840      2.7331069E-02  0.1989324      0.1985779    
   35.46343      2.8198060E-02  0.1994909      0.1990106    
   34.37305      2.9092560E-02  0.1986086      0.1987695    
   33.31620      3.0015431E-02  0.1982090      0.1987184    
   32.29184      3.0967580E-02  0.1993377      0.1990407    
   31.29897      3.1949930E-02  0.1995755      0.1998932    
   30.33664      3.2963444E-02  0.2007664      0.2008940    
   29.40389      3.4009106E-02  0.2023399      0.2034372    
   28.49982      3.5087943E-02  0.2072053      0.2066921    
   27.62355      3.6201000E-02  0.2105310      0.2087219    
   26.77422      3.7349366E-02  0.2084294      0.2087646    
   25.95100      3.8534161E-02  0.2073335      0.2068714    
   25.15310      3.9756540E-02  0.2048513      0.2070327    
   24.37972      4.1017693E-02  0.2089134      0.2130460    
   23.63013      4.2318851E-02  0.2165870      0.2178571    
   22.90358      4.3661289E-02  0.2218324      0.2187785    
   22.19938      4.5046311E-02  0.2240957      0.2228318    
   21.51682      4.6475261E-02  0.2224638      0.2281489    
   20.85525      4.7949549E-02  0.2291801      0.2330032    
   20.21403      4.9470600E-02  0.2431726      0.2356971    
   19.59251      5.1039908E-02  0.2461035      0.2368542    
   18.99011      5.2658990E-02  0.2375655      0.2357511    
   18.40623      5.4329433E-02  0.2282491      0.2323960    
   17.84030      5.6052871E-02  0.2236647      0.2303168    
   17.29177      5.7830978E-02  0.2263971      0.2313158    
   16.76011      5.9665482E-02  0.2357078      0.2401331    
   16.24479      6.1558187E-02  0.2425603      0.2488474    
   15.74532      6.3510932E-02  0.2536233      0.2542830    
   15.26120      6.5525629E-02  0.2588455      0.2536339    
   14.79198      6.7604221E-02  0.2759506      0.2574314    
   14.33717      6.9748759E-02  0.2590104      0.2641767    
   13.89635      7.1961328E-02  0.2497396      0.2686929    
   13.46909      7.4244082E-02  0.2622899      0.2707850    
   13.05496      7.6599240E-02  0.2897777      0.2717722    
   12.65356      7.9029121E-02  0.2852369      0.2849971    
   12.26451      8.1536077E-02  0.2734900      0.2947700    
   11.88742      8.4122561E-02  0.2828612      0.3069743    
   11.52192      8.6791091E-02  0.3069022      0.3218824    
   11.16766      8.9544266E-02  0.3296792      0.3325979    
   10.82429      9.2384785E-02  0.3279228      0.3454229    
   10.49148      9.5315412E-02  0.3599244      0.3615998    
   10.16891      9.8338999E-02  0.4090424      0.3906263    
   9.856246      0.1014585      0.4183227      0.4136738    
   9.553200      0.1046770      0.4006615      0.4317016    
   9.259472      0.1079975      0.4190818      0.4457842    
   8.974774      0.1114234      0.4482100      0.4592491    
   8.698831      0.1149580      0.4865152      0.4539520    
   8.431372      0.1186047      0.5373784      0.4546656    
   8.172135      0.1223670      0.5099564      0.4531157    
   7.920870      0.1262487      0.4687496      0.4538524    
   7.677330      0.1302536      0.4945728      0.4527452    
   7.441278      0.1343855      0.4490173      0.4530200    
   7.212485      0.1386485      0.4059160      0.4570262    
   6.990726      0.1430467      0.4176061      0.4599788    
   6.775784      0.1475844      0.3997236      0.4638140    
   6.567452      0.1522661      0.4095023      0.4658780    
   6.365525      0.1570962      0.4057948      0.4673478    
   6.169807      0.1620796      0.4340328      0.4650916    
   5.980107      0.1672211      0.4704951      0.4742035    
   5.796239      0.1725257      0.5091072      0.4838827    
   5.618024      0.1779985      0.5278519      0.4990794    
   5.445289      0.1836450      0.5241028      0.5268290    
   5.277865      0.1894706      0.5307817      0.5329432    
   5.115589      0.1954809      0.5409154      0.5419291    
   4.958302      0.2016820      0.4907983      0.5473687    
   4.805851      0.2080797      0.4607287      0.5504201    
   4.658087      0.2146804      0.5305296      0.5446630    
   4.514867      0.2214905      0.5545558      0.5402337    
   4.376050      0.2285166      0.6135643      0.5349825    
   4.241501      0.2357656      0.6642591      0.5336303    
   4.111090      0.2432445      0.6972218      0.5286016    
   3.984688      0.2509607      0.7189569      0.5190732    
   3.862172      0.2589217      0.6429970      0.5148416    
   3.743424      0.2671351      0.5619047      0.5045149    
   3.628326      0.2756092      0.5504805      0.4919993    
   3.516768      0.2843520      0.5182949      0.4853671    
   3.408639      0.2933722      0.4668221      0.4782815    
   3.303835      0.3026786      0.4284789      0.4740914    
   3.202253      0.3122801      0.4350742      0.4702640    
   3.103795      0.3221862      0.4472207      0.4621661    
   3.008364      0.3324066      0.4455194      0.4544246    
   2.915867      0.3429512      0.4444302      0.4526834    
   2.826214      0.3538303      0.4780064      0.4482481    
   2.739317      0.3650545      0.4872296      0.4391032    
   2.655093      0.3766347      0.4535661      0.4350779    
   2.573457      0.3885823      0.4080387      0.4241398    
   2.494333      0.4009089      0.4014244      0.4225492    
   2.417640      0.4136265      0.4140826      0.4138479    
   2.343306      0.4267475      0.4067049      0.4055625    
   2.271257      0.4402848      0.3600969      0.3988209    
   2.201424      0.4542515      0.3279638      0.3848826    
   2.133738      0.4686611      0.3181144      0.3731467    
   2.068133      0.4835280      0.3485814      0.3561042    
   2.004544      0.4988664      0.3723656      0.3383398    
   1.942912      0.5146915      0.3912311      0.3224027    
   1.883174      0.5310184      0.3996311      0.3060433    
   1.825273      0.5478634      0.4094840      0.2858626    
   1.769152      0.5652427      0.4158271      0.2650586    
   1.714756      0.5831733      0.4060501      0.2451153    
   1.662033      0.6016726      0.3761372      0.2210069    
   1.610931      0.6207589      0.3493302      0.1972155    
   1.561401      0.6404505      0.3531398      0.1879368    
   1.513393      0.6607669      0.3926283      0.1879368    
   1.466861      0.6817277      0.4066375      0.1855737    
   1.421760      0.7033534      0.4377894      0.1855737    
   1.378046      0.7256652      0.4654678      0.1831769    
   1.335676      0.7486846      0.4322380      0.1831769    
   1.294608      0.7724344      0.3942168      0.1804214    
   1.254804      0.7969375      0.3616383      0.1804214    
   1.216223      0.8222179      0.3663515      0.1775270    
   1.178828      0.8483002      0.3468184      0.1775270    
   1.142583      0.8752099      0.3099999      0.1748981    
   1.107453      0.9029732      0.3629013      0.1748981    
   1.073402      0.9316174      0.3871527      0.1726563    
   1.040399      0.9611701      0.4017288      0.1726563    
   1.008410      0.9916603      0.4119580      0.1726563    
  0.9774047       1.023118      0.3923218      0.1704353    
  0.9473529       1.055573      0.3940822      0.1704353    
  0.9182250       1.089058      0.3686888      0.1704353    
  0.8899927       1.123605      0.3307039      0.1680466    
  0.8626285       1.159248      0.3284497      0.1680466    
  0.8361056       1.196021      0.3109067      0.1656836    
  0.8103982       1.233961      0.2910406      0.1656836    
  0.7854812       1.273105      0.2709173      0.1656836    
  0.7613303       1.313490      0.2434994      0.1637395    
  0.7379220       1.355157      0.2059776      0.1637395    
  0.7152334       1.398145      0.1713408      0.1637395    
  0.6932424       1.442497      0.1636468      0.1620807    
  0.6719276       1.488256      0.1684140      0.1620807    
  0.6512681       1.535466      0.1653782      0.1620807    
  0.6312438       1.584174      0.1726517      0.1604885    
  0.6118352       1.634427      0.1740227      0.1604885    
  0.5930234       1.686274      0.1630285      0.1604885    
  0.5747899       1.739766      0.1547067      0.1604885    
  0.5571171       1.794955      0.1421249      0.1585494    
  0.5399877       1.851894      0.1310644      0.1585494    
  0.5233849       1.910640      0.1132002      0.1585494    
  0.5072926       1.971249      9.8830454E-02  0.1585494    
  0.4916950       2.033781      8.5900493E-02  0.1563222    
  0.4765771       2.098296      7.2457686E-02  0.1563222    
  0.4619240       2.164858      6.8921834E-02  0.1563222    
  0.4477214       2.233532      7.4230060E-02  0.1563222    
  0.4339555       2.304384      8.1815727E-02  0.1538494    
  0.4206128       2.377483      8.1977278E-02  0.1538494    
  0.4076804       2.452902      7.2969846E-02  0.1538494    
  0.3951457       2.530712      6.8466999E-02  0.1538494    
  0.3829963       2.610991      6.1645810E-02  0.1512347    
  0.3712204       2.693817      5.6139044E-02  0.1512347    
  0.3598067       2.779270      5.3696483E-02  0.1512347    
  0.3487439       2.867434      5.3444326E-02  0.1512347    
  0.3380212       2.958395      5.0696336E-02  0.1512347    
  0.3276282       3.052241      4.7082122E-02  0.1512347    
  0.3175547       3.149064      4.1201990E-02  0.1484578    
  0.3077910       3.248958      3.6001038E-02  0.1484578    
  0.2983274       3.352021      3.1911623E-02  0.1484578    
  0.2891549       3.458354      3.0290633E-02  0.1484578    
  0.2802644       3.568060      2.8752396E-02  0.1484578    
  0.2716472       3.681245      2.5318341E-02  0.1484578    
  0.2632950       3.798022      2.1850612E-02  0.1455517    
  0.2551996       3.918502      1.9584412E-02  0.1455517    
  0.2473530       4.042805      1.9855199E-02  0.1455517    
  0.2397478       4.171050      1.8921593E-02  0.1455517    
  0.2323764       4.303364      1.5361043E-02  0.1455517    
  0.2252316       4.439875      1.2871935E-02  0.1455517    
  0.2183065       4.580716      1.1895915E-02  0.1455517    
  0.2115943       4.726026      1.1581210E-02  0.1426890    
  0.2050885       4.875944      1.0712368E-02  0.1426890    
  0.1987827       5.030619      1.0471954E-02  0.1426890    
  0.1926708       5.190199      1.0877686E-02  0.1426890    
  0.1867469       5.354843      1.1803805E-02  0.1426890    
  0.1810050       5.524709      1.2416380E-02  0.1426890    
  0.1754397       5.699963      1.2550799E-02  0.1426890    
  0.1700456       5.880777      1.2803054E-02  0.1426890    
  0.1648172       6.067327      1.2479979E-02  0.1426890    
  0.1597497       6.259794      1.1647293E-02  0.1400952    
  0.1548379       6.458367      1.0642403E-02  0.1400952    
  0.1500772       6.663239      1.0782645E-02  0.1400952    
  0.1454628       6.874609      1.1202114E-02  0.1400952    
  0.1409903       7.092686      1.0856115E-02  0.1400952    
  0.1366553       7.317679      9.9794697E-03  0.1400952    
  0.1324537       7.549810      8.6430302E-03  0.1400952    
  0.1283812       7.789305      7.1841227E-03  0.1400952    
  0.1244339       8.036396      6.7034424E-03  0.1400952    
  0.1206080       8.291327      6.5795556E-03  0.1400952    
  0.1168997       8.554343      6.3012289E-03  0.1400952    
  0.1133054       8.825704      5.8828928E-03  0.1400952    
  0.1098217       9.105672      5.3868871E-03  0.1377442    
  0.1064450       9.394522      4.8236544E-03  0.1377442    
  0.1031722       9.692533      4.1987943E-03  0.1377442    
  0.1000000       10.00000      3.8025540E-03  0.1377442    
