 Calculated PSA for the frequency range: 
 Station:   KGNO
 Component: BHZ
  0.1000000      Hz and    50.00000      Hz
         200 frequencies distributed logarithmically
 Oscillator damping is   5.000000     % of critical
  Freq.(Hz)       Period(s)      PSA(cm/s^2)  Smooth PSA(cm/s^2)
   50.00000      1.9999998E-02   1.160061       1.160061    
   48.46267      2.0634437E-02   1.167282       1.155228    
   46.97261      2.1289000E-02   1.143174       1.147202    
   45.52837      2.1964328E-02   1.131150       1.135795    
   44.12852      2.2661081E-02   1.133060       1.140517    
   42.77172      2.3379933E-02   1.157340       1.158886    
   41.45663      2.4121592E-02   1.186256       1.186708    
   40.18199      2.4886772E-02   1.216527       1.216891    
   38.94653      2.5676232E-02   1.247888       1.248052    
   37.74905      2.6490729E-02   1.279739       1.280408    
   36.58840      2.7331069E-02   1.313596       1.310063    
   35.46343      2.8198060E-02   1.336856       1.325539    
   34.37305      2.9092560E-02   1.326165       1.326934    
   33.31620      3.0015431E-02   1.317780       1.309306    
   32.29184      3.0967580E-02   1.283974       1.276330    
   31.29897      3.1949930E-02   1.227234       1.265079    
   30.33664      3.2963444E-02   1.284028       1.298290    
   29.40389      3.4009106E-02   1.383606       1.396544    
   28.49982      3.5087943E-02   1.521996       1.569224    
   27.62355      3.6201000E-02   1.802068       1.731749    
   26.77422      3.7349366E-02   1.871183       1.780461    
   25.95100      3.8534161E-02   1.668132       1.620478    
   25.15310      3.9756540E-02   1.322118       1.501930    
   24.37972      4.1017693E-02   1.515540       1.389152    
   23.63013      4.2318851E-02   1.470399       1.335821    
   22.90358      4.3661289E-02   1.248552       1.273455    
   22.19938      4.5046311E-02   1.108792       1.184018    
   21.51682      4.6475261E-02   1.023994       1.122850    
   20.85525      4.7949549E-02   1.068354       1.124320    
   20.21403      4.9470600E-02   1.164559       1.176285    
   19.59251      5.1039908E-02   1.255901       1.271028    
   18.99011      5.2658990E-02   1.368614       1.357617    
   18.40623      5.4329433E-02   1.497713       1.449211    
   17.84030      5.6052871E-02   1.501298       1.517427    
   17.29177      5.7830978E-02   1.622527       1.579513    
   16.76011      5.9665482E-02   1.596983       1.714583    
   16.24479      6.1558187E-02   1.679043       1.936067    
   15.74532      6.3510932E-02   1.793495       2.177483    
   15.26120      6.5525629E-02   2.094151       2.297551    
   14.79198      6.7604221E-02   2.830203       2.505345    
   14.33717      6.9748759E-02   3.071020       2.723109    
   13.89635      7.1961328E-02   3.017961       2.933750    
   13.46909      7.4244082E-02   3.051541       3.042101    
   13.05496      7.6599240E-02   3.203390       2.990287    
   12.65356      7.9029121E-02   3.267981       2.900046    
   12.26451      8.1536077E-02   2.852607       2.890726    
   11.88742      8.4122561E-02   2.467507       2.876097    
   11.52192      8.6791091E-02   2.508539       2.877084    
   11.16766      8.9544266E-02   2.830841       2.885493    
   10.82429      9.2384785E-02   2.943399       2.906017    
   10.49148      9.5315412E-02   2.934510       2.970556    
   10.16891      9.8338999E-02   3.211284       3.154454    
   9.856246      0.1014585       2.952769       3.294798    
   9.553200      0.1046770       3.452695       3.406804    
   9.259472      0.1079975       3.433463       3.467117    
   8.974774      0.1114234       3.371967       3.495940    
   8.698831      0.1149580       3.905070       3.408056    
   8.431372      0.1186047       3.911982       3.347965    
   8.172135      0.1223670       3.950905       3.337963    
   7.920870      0.1262487       3.546520       3.309819    
   7.677330      0.1302536       3.222753       3.260954    
   7.441278      0.1343855       2.812124       3.193229    
   7.212485      0.1386485       3.125141       3.206762    
   6.990726      0.1430467       2.490194       3.203341    
   6.775784      0.1475844       2.832748       3.233520    
   6.567452      0.1522661       3.114960       3.213320    
   6.365525      0.1570962       2.847082       3.227524    
   6.169807      0.1620796       2.912800       3.223522    
   5.980107      0.1672211       2.839695       3.193783    
   5.796239      0.1725257       3.382684       3.210194    
   5.618024      0.1779985       3.857179       3.193220    
   5.445289      0.1836450       3.707154       3.154086    
   5.277865      0.1894706       3.860864       3.135069    
   5.115589      0.1954809       3.647914       3.126138    
   4.958302      0.2016820       3.759568       3.089056    
   4.805851      0.2080797       3.162737       3.035491    
   4.658087      0.2146804       2.959337       2.890871    
   4.514867      0.2214905       2.982125       2.826360    
   4.376050      0.2285166       3.091121       2.716705    
   4.241501      0.2357656       2.836587       2.626951    
   4.111090      0.2432445       2.443914       2.439626    
   3.984688      0.2509607       2.535088       2.314850    
   3.862172      0.2589217       2.792765       2.203457    
   3.743424      0.2671351       3.089147       2.041427    
   3.628326      0.2756092       2.700056       1.962733    
   3.516768      0.2843520       2.373313       1.868205    
   3.408639      0.2933722       1.775771       1.736114    
   3.303835      0.3026786       1.525422       1.630982    
   3.202253      0.3122801       1.385856       1.587833    
   3.103795      0.3221862       1.471621       1.502161    
   3.008364      0.3324066       1.621727       1.423463    
   2.915867      0.3429512       1.522266       1.395134    
   2.826214      0.3538303       1.318346       1.313273    
   2.739317      0.3650545       1.064747       1.233637    
   2.655093      0.3766347      0.9235793       1.195715    
   2.573457      0.3885823      0.8499514       1.127680    
   2.494333      0.4009089      0.7851138       1.068490    
   2.417640      0.4136265      0.8109453      0.9804966    
   2.343306      0.4267475      0.8283154      0.9099937    
   2.271257      0.4402848      0.8612081      0.8688235    
   2.201424      0.4542515      0.9006897      0.7905426    
   2.133738      0.4686611      0.9000401      0.7564430    
   2.068133      0.4835280      0.9065955      0.6807475    
   2.004544      0.4988664      0.8645599      0.6169002    
   1.942912      0.5146915      0.8004808      0.5867126    
   1.883174      0.5310184      0.7882456      0.5413941    
   1.825273      0.5478634      0.8515251      0.5035697    
   1.769152      0.5652427      0.9255846      0.4572012    
   1.714756      0.5831733      0.9124371      0.4229565    
   1.662033      0.6016726      0.8410775      0.3759948    
   1.610931      0.6207589      0.7932575      0.3352948    
   1.561401      0.6404505      0.8178692      0.3129456    
   1.513393      0.6607669      0.9119964      0.3129456    
   1.466861      0.6817277      0.9345243      0.3009385    
   1.421760      0.7033534      0.8642061      0.3009385    
   1.378046      0.7256652      0.7362009      0.2896299    
   1.335676      0.7486846      0.6393480      0.2896299    
   1.294608      0.7724344      0.5500428      0.2800157    
   1.254804      0.7969375      0.4939928      0.2800157    
   1.216223      0.8222179      0.4626878      0.2726126    
   1.178828      0.8483002      0.4498062      0.2726126    
   1.142583      0.8752099      0.4171368      0.2664129    
   1.107453      0.9029732      0.3649992      0.2664129    
   1.073402      0.9316174      0.3046909      0.2608019    
   1.040399      0.9611701      0.2334266      0.2608019    
   1.008410      0.9916603      0.1814035      0.2608019    
  0.9774047       1.023118      0.1723509      0.2557115    
  0.9473529       1.055573      0.1781134      0.2557115    
  0.9182250       1.089058      0.1859000      0.2557115    
  0.8899927       1.123605      0.1920197      0.2502681    
  0.8626285       1.159248      0.1971034      0.2502681    
  0.8361056       1.196021      0.2000507      0.2445448    
  0.8103982       1.233961      0.2081170      0.2445448    
  0.7854812       1.273105      0.2221378      0.2445448    
  0.7613303       1.313490      0.2362249      0.2383782    
  0.7379220       1.355157      0.2319023      0.2383782    
  0.7152334       1.398145      0.2097678      0.2383782    
  0.6932424       1.442497      0.1783321      0.2316882    
  0.6719276       1.488256      0.1480402      0.2316882    
  0.6512681       1.535466      0.1356805      0.2316882    
  0.6312438       1.584174      0.1293496      0.2248683    
  0.6118352       1.634427      0.1257399      0.2248683    
  0.5930234       1.686274      0.1267785      0.2248683    
  0.5747899       1.739766      0.1214830      0.2248683    
  0.5571171       1.794955      0.1151933      0.2178401    
  0.5399877       1.851894      0.1156195      0.2178401    
  0.5233849       1.910640      0.1127454      0.2178401    
  0.5072926       1.971249      0.1134659      0.2178401    
  0.4916950       2.033781      0.1087313      0.2111035    
  0.4765771       2.098296      0.1220528      0.2111035    
  0.4619240       2.164858      0.1257073      0.2111035    
  0.4477214       2.233532      0.1187226      0.2111035    
  0.4339555       2.304384      0.1170442      0.2048995    
  0.4206128       2.377483      0.1101105      0.2048995    
  0.4076804       2.452902      9.6357398E-02  0.2048995    
  0.3951457       2.530712      8.5425645E-02  0.2048995    
  0.3829963       2.610991      7.9097569E-02  0.1986937    
  0.3712204       2.693817      7.4460268E-02  0.1986937    
  0.3598067       2.779270      7.0497468E-02  0.1986937    
  0.3487439       2.867434      6.5435588E-02  0.1986937    
  0.3380212       2.958395      6.2584907E-02  0.1986937    
  0.3276282       3.052241      5.9452597E-02  0.1986937    
  0.3175547       3.149064      5.9501506E-02  0.1916740    
  0.3077910       3.248958      6.1184213E-02  0.1916740    
  0.2983274       3.352021      6.1934415E-02  0.1916740    
  0.2891549       3.458354      5.7738129E-02  0.1916740    
  0.2802644       3.568060      5.0016247E-02  0.1916740    
  0.2716472       3.681245      4.3424476E-02  0.1916740    
  0.2632950       3.798022      3.7628658E-02  0.1836967    
  0.2551996       3.918502      3.2036461E-02  0.1836967    
  0.2473530       4.042805      2.7973033E-02  0.1836967    
  0.2397478       4.171050      2.7244780E-02  0.1836967    
  0.2323764       4.303364      2.9453104E-02  0.1836967    
  0.2252316       4.439875      3.1909786E-02  0.1836967    
  0.2183065       4.580716      3.4872893E-02  0.1836967    
  0.2115943       4.726026      3.8007326E-02  0.1756886    
  0.2050885       4.875944      4.0241871E-02  0.1756886    
  0.1987827       5.030619      4.0399954E-02  0.1756886    
  0.1926708       5.190199      3.9195243E-02  0.1756886    
  0.1867469       5.354843      3.6298718E-02  0.1756886    
  0.1810050       5.524709      3.2804970E-02  0.1756886    
  0.1754397       5.699963      2.9256005E-02  0.1756886    
  0.1700456       5.880777      2.7314123E-02  0.1756886    
  0.1648172       6.067327      2.4624556E-02  0.1756886    
  0.1597497       6.259794      2.2310574E-02  0.1682954    
  0.1548379       6.458367      2.0485280E-02  0.1682954    
  0.1500772       6.663239      1.8651389E-02  0.1682954    
  0.1454628       6.874609      1.6823158E-02  0.1682954    
  0.1409903       7.092686      1.5086789E-02  0.1682954    
  0.1366553       7.317679      1.3361268E-02  0.1682954    
  0.1324537       7.549810      1.1654018E-02  0.1682954    
  0.1283812       7.789305      1.0040671E-02  0.1682954    
  0.1244339       8.036396      8.6210510E-03  0.1682954    
  0.1206080       8.291327      7.4678794E-03  0.1682954    
  0.1168997       8.554343      6.5946425E-03  0.1682954    
  0.1133054       8.825704      5.9489217E-03  0.1682954    
  0.1098217       9.105672      5.4380447E-03  0.1612733    
  0.1064450       9.394522      4.9843253E-03  0.1612733    
  0.1031722       9.692533      4.5477641E-03  0.1612733    
  0.1000000       10.00000      4.1218204E-03  0.1612733    
