 Calculated PSA for the frequency range: 
 Station:   GAC 
 Component: BHN
  0.1000000      Hz and    50.00000      Hz
         200 frequencies distributed logarithmically
 Oscillator damping is   5.000000     % of critical
  Freq.(Hz)       Period(s)      PSA(cm/s^2)  Smooth PSA(cm/s^2)
   50.00000      1.9999998E-02   1.449410       1.449410    
   48.46267      2.0634437E-02   1.441262       1.454472    
   46.97261      2.1289000E-02   1.467681       1.474393    
   45.52837      2.1964328E-02   1.514238       1.513243    
   44.12852      2.2661081E-02   1.557811       1.552426    
   42.77172      2.3379933E-02   1.585229       1.583585    
   41.45663      2.4121592E-02   1.607716       1.610259    
   40.18199      2.4886772E-02   1.637832       1.638381    
   38.94653      2.5676232E-02   1.669595       1.667743    
   37.74905      2.6490729E-02   1.695803       1.694634    
   36.58840      2.7331069E-02   1.718505       1.726614    
   35.46343      2.8198060E-02   1.765535       1.770181    
   34.37305      2.9092560E-02   1.826505       1.830312    
   33.31620      3.0015431E-02   1.898897       1.894813    
   32.29184      3.0967580E-02   1.959037       1.948031    
   31.29897      3.1949930E-02   1.986158       1.972130    
   30.33664      3.2963444E-02   1.971196       1.968893    
   29.40389      3.4009106E-02   1.949325       1.938142    
   28.49982      3.5087943E-02   1.893906       1.898894    
   27.62355      3.6201000E-02   1.853453       1.844445    
   26.77422      3.7349366E-02   1.785977       1.815865    
   25.95100      3.8534161E-02   1.808164       1.823353    
   25.15310      3.9756540E-02   1.875919       1.786250    
   24.37972      4.1017693E-02   1.674667       1.538454    
   23.63013      4.2318851E-02   1.391991       1.380066    
   22.90358      4.3661289E-02   1.211240       1.381230    
   22.19938      4.5046311E-02   1.242366       1.341179    
   21.51682      4.6475261E-02   1.385887       1.377506    
   20.85525      4.7949549E-02   1.474411       1.471995    
   20.21403      4.9470600E-02   1.573629       1.579507    
   19.59251      5.1039908E-02   1.683679       1.679551    
   18.99011      5.2658990E-02   1.779927       1.807089    
   18.40623      5.4329433E-02   1.886109       1.937114    
   17.84030      5.6052871E-02   2.112102       2.001402    
   17.29177      5.7830978E-02   2.223752       2.040469    
   16.76011      5.9665482E-02   2.005119       2.164266    
   16.24479      6.1558187E-02   1.975262       2.175658    
   15.74532      6.3510932E-02   2.273611       2.104612    
   15.26120      6.5525629E-02   2.395748       2.054414    
   14.79198      6.7604221E-02   2.180457       2.070231    
   14.33717      6.9748759E-02   1.797473       2.140476    
   13.89635      7.1961328E-02   1.753228       2.175288    
   13.46909      7.4244082E-02   2.115839       2.172362    
   13.05496      7.6599240E-02   2.466975       2.191268    
   12.65356      7.9029121E-02   2.517294       2.375243    
   12.26451      8.1536077E-02   2.375268       2.484114    
   11.88742      8.4122561E-02   2.312800       2.501982    
   11.52192      8.6791091E-02   2.626302       2.453582    
   11.16766      8.9544266E-02   2.834235       2.440516    
   10.82429      9.2384785E-02   2.624201       2.443357    
   10.49148      9.5315412E-02   2.258780       2.470605    
   10.16891      9.8338999E-02   2.079776       2.524078    
   9.856246      0.1014585       2.335989       2.513854    
   9.553200      0.1046770       2.542866       2.507608    
   9.259472      0.1079975       2.620502       2.498358    
   8.974774      0.1114234       2.649135       2.512686    
   8.698831      0.1149580       2.668994       2.549691    
   8.431372      0.1186047       2.524057       2.625296    
   8.172135      0.1223670       2.771782       2.703983    
   7.920870      0.1262487       2.531693       2.779609    
   7.677330      0.1302536       2.402064       2.841397    
   7.441278      0.1343855       2.574075       2.889692    
   7.212485      0.1386485       2.895365       2.912992    
   6.990726      0.1430467       2.987031       2.968008    
   6.775784      0.1475844       3.280228       2.975936    
   6.567452      0.1522661       3.450385       2.939796    
   6.365525      0.1570962       3.361953       2.900335    
   6.169807      0.1620796       3.112522       2.862753    
   5.980107      0.1672211       3.005844       2.766136    
   5.796239      0.1725257       3.215902       2.729557    
   5.618024      0.1779985       3.439216       2.675506    
   5.445289      0.1836450       3.069790       2.604320    
   5.277865      0.1894706       2.541191       2.587952    
   5.115589      0.1954809       2.229679       2.539708    
   4.958302      0.2016820       1.939778       2.494524    
   4.805851      0.2080797       1.838337       2.452423    
   4.658087      0.2146804       2.052795       2.421677    
   4.514867      0.2214905       2.030224       2.416666    
   4.376050      0.2285166       1.952221       2.385236    
   4.241501      0.2357656       1.976510       2.348984    
   4.111090      0.2432445       2.137166       2.300024    
   3.984688      0.2509607       2.244016       2.283228    
   3.862172      0.2589217       2.293328       2.240894    
   3.743424      0.2671351       2.396999       2.192581    
   3.628326      0.2756092       2.506307       2.147864    
   3.516768      0.2843520       2.546694       2.123428    
   3.408639      0.2933722       2.519943       2.087441    
   3.303835      0.3026786       2.520378       2.064061    
   3.202253      0.3122801       2.398899       2.034562    
   3.103795      0.3221862       2.311441       2.002303    
   3.008364      0.3324066       2.320720       1.965293    
   2.915867      0.3429512       2.378901       1.921602    
   2.826214      0.3538303       2.382102       1.879345    
   2.739317      0.3650545       2.399003       1.855641    
   2.655093      0.3766347       2.214165       1.837325    
   2.573457      0.3885823       2.094595       1.796513    
   2.494333      0.4009089       2.068760       1.749804    
   2.417640      0.4136265       1.969085       1.696005    
   2.343306      0.4267475       1.814516       1.647346    
   2.271257      0.4402848       1.663140       1.595195    
   2.201424      0.4542515       1.589958       1.534010    
   2.133738      0.4686611       1.498395       1.498818    
   2.068133      0.4835280       1.521049       1.428966    
   2.004544      0.4988664       1.489554       1.345756    
   1.942912      0.5146915       1.494031       1.277169    
   1.883174      0.5310184       1.585479       1.194490    
   1.825273      0.5478634       1.615528       1.110992    
   1.769152      0.5652427       1.591750       1.019308    
   1.714756      0.5831733       1.562900      0.9425516    
   1.662033      0.6016726       1.509048      0.8412187    
   1.610931      0.6207589       1.481511      0.7484124    
   1.561401      0.6404505       1.411515      0.7072185    
   1.513393      0.6607669       1.325675      0.7072185    
   1.466861      0.6817277       1.196464      0.6924157    
   1.421760      0.7033534       1.117527      0.6924157    
   1.378046      0.7256652       1.078326      0.6768001    
   1.335676      0.7486846       1.189733      0.6768001    
   1.294608      0.7724344       1.399139      0.6608627    
   1.254804      0.7969375       1.532246      0.6608627    
   1.216223      0.8222179       1.544846      0.6444651    
   1.178828      0.8483002       1.415464      0.6444651    
   1.142583      0.8752099       1.211910      0.6295156    
   1.107453      0.9029732       1.048498      0.6295156    
   1.073402      0.9316174       1.015374      0.6154283    
   1.040399      0.9611701       1.096910      0.6154283    
   1.008410      0.9916603       1.175333      0.6154283    
  0.9774047       1.023118       1.168216      0.6013183    
  0.9473529       1.055573       1.083900      0.6013183    
  0.9182250       1.089058      0.9629639      0.6013183    
  0.8899927       1.123605      0.8586256      0.5879089    
  0.8626285       1.159248      0.7950822      0.5879089    
  0.8361056       1.196021      0.7687531      0.5757642    
  0.8103982       1.233961      0.7605864      0.5757642    
  0.7854812       1.273105      0.7529950      0.5757642    
  0.7613303       1.313490      0.7473165      0.5648904    
  0.7379220       1.355157      0.7770929      0.5648904    
  0.7152334       1.398145      0.8201914      0.5648904    
  0.6932424       1.442497      0.8612053      0.5545362    
  0.6719276       1.488256      0.8856621      0.5545362    
  0.6512681       1.535466      0.8844154      0.5545362    
  0.6312438       1.584174      0.8401316      0.5449050    
  0.6118352       1.634427      0.7733210      0.5449050    
  0.5930234       1.686274      0.6781225      0.5449050    
  0.5747899       1.739766      0.5899240      0.5449050    
  0.5571171       1.794955      0.5258834      0.5348417    
  0.5399877       1.851894      0.4501445      0.5348417    
  0.5233849       1.910640      0.3816715      0.5348417    
  0.5072926       1.971249      0.3168717      0.5348417    
  0.4916950       2.033781      0.2618062      0.5248967    
  0.4765771       2.098296      0.2231651      0.5248967    
  0.4619240       2.164858      0.1946021      0.5248967    
  0.4477214       2.233532      0.1766914      0.5248967    
  0.4339555       2.304384      0.1684840      0.5146953    
  0.4206128       2.377483      0.1627613      0.5146953    
  0.4076804       2.452902      0.1583219      0.5146953    
  0.3951457       2.530712      0.1570265      0.5146953    
  0.3829963       2.610991      0.1561812      0.5033040    
  0.3712204       2.693817      0.1534623      0.5033040    
  0.3598067       2.779270      0.1515024      0.5033040    
  0.3487439       2.867434      0.1511122      0.5033040    
  0.3380212       2.958395      0.1486350      0.5033040    
  0.3276282       3.052241      0.1437272      0.5033040    
  0.3175547       3.149064      0.1399966      0.4913446    
  0.3077910       3.248958      0.1368652      0.4913446    
  0.2983274       3.352021      0.1308151      0.4913446    
  0.2891549       3.458354      0.1207721      0.4913446    
  0.2802644       3.568060      0.1103312      0.4913446    
  0.2716472       3.681245      0.1018134      0.4913446    
  0.2632950       3.798022      9.3486004E-02  0.4793837    
  0.2551996       3.918502      8.3511077E-02  0.4793837    
  0.2473530       4.042805      7.2433516E-02  0.4793837    
  0.2397478       4.171050      6.2059846E-02  0.4793837    
  0.2323764       4.303364      5.3238112E-02  0.4793837    
  0.2252316       4.439875      4.7017094E-02  0.4793837    
  0.2183065       4.580716      4.5613304E-02  0.4793837    
  0.2115943       4.726026      4.3901756E-02  0.4674769    
  0.2050885       4.875944      4.1753814E-02  0.4674769    
  0.1987827       5.030619      3.9620869E-02  0.4674769    
  0.1926708       5.190199      3.7170585E-02  0.4674769    
  0.1867469       5.354843      3.4692690E-02  0.4674769    
  0.1810050       5.524709      3.2309011E-02  0.4674769    
  0.1754397       5.699963      3.0012194E-02  0.4674769    
  0.1700456       5.880777      2.7752565E-02  0.4674769    
  0.1648172       6.067327      2.5469657E-02  0.4674769    
  0.1597497       6.259794      2.3148356E-02  0.4559039    
  0.1548379       6.458367      2.0874655E-02  0.4559039    
  0.1500772       6.663239      1.8726321E-02  0.4559039    
  0.1454628       6.874609      1.6709626E-02  0.4559039    
  0.1409903       7.092686      1.4846518E-02  0.4559039    
  0.1366553       7.317679      1.3213189E-02  0.4559039    
  0.1324537       7.549810      1.1831323E-02  0.4559039    
  0.1283812       7.789305      1.0674132E-02  0.4559039    
  0.1244339       8.036396      9.7035496E-03  0.4559039    
  0.1206080       8.291327      8.8841803E-03  0.4559039    
  0.1168997       8.554343      8.1805615E-03  0.4559039    
  0.1133054       8.825704      7.5562131E-03  0.4559039    
  0.1098217       9.105672      6.9942512E-03  0.4443802    
  0.1064450       9.394522      6.4801215E-03  0.4443802    
  0.1031722       9.692533      6.0770358E-03  0.4443802    
  0.1000000       10.00000      5.7908199E-03  0.4443802    
