 Calculated PSA for the frequency range: 
 Station:   BRCO
 Component: HHN
  0.1000000      Hz and    50.00000      Hz
         200 frequencies distributed logarithmically
 Oscillator damping is   5.000000     % of critical
  Freq.(Hz)       Period(s)      PSA(cm/s^2)  Smooth PSA(cm/s^2)
   50.00000      1.9999998E-02   1.358961       1.358961    
   48.46267      2.0634437E-02   1.360228       1.360910    
   46.97261      2.1289000E-02   1.361592       1.361565    
   45.52837      2.1964328E-02   1.362874       1.362612    
   44.12852      2.2661081E-02   1.363370       1.362843    
   42.77172      2.3379933E-02   1.362285       1.362301    
   41.45663      2.4121592E-02   1.361248       1.362038    
   40.18199      2.4886772E-02   1.362581       1.363012    
   38.94653      2.5676232E-02   1.365207       1.364799    
   37.74905      2.6490729E-02   1.366610       1.364711    
   36.58840      2.7331069E-02   1.362315       1.361704    
   35.46343      2.8198060E-02   1.356187       1.357995    
   34.37305      2.9092560E-02   1.355482       1.357648    
   33.31620      3.0015431E-02   1.361274       1.359051    
   32.29184      3.0967580E-02   1.360397       1.362537    
   31.29897      3.1949930E-02   1.365941       1.366876    
   30.33664      3.2963444E-02   1.374291       1.370476    
   29.40389      3.4009106E-02   1.371196       1.374001    
   28.49982      3.5087943E-02   1.376515       1.374862    
   27.62355      3.6201000E-02   1.376873       1.374928    
   26.77422      3.7349366E-02   1.371396       1.371027    
   25.95100      3.8534161E-02   1.364813       1.367888    
   25.15310      3.9756540E-02   1.367457       1.372147    
   24.37972      4.1017693E-02   1.384172       1.379949    
   23.63013      4.2318851E-02   1.386963       1.382900    
   22.90358      4.3661289E-02   1.381202       1.386765    
   22.19938      4.5046311E-02   1.379264       1.391333    
   21.51682      4.6475261E-02   1.402224       1.394117    
   20.85525      4.7949549E-02   1.407012       1.397323    
   20.21403      4.9470600E-02   1.400882       1.404137    
   19.59251      5.1039908E-02   1.397231       1.414072    
   18.99011      5.2658990E-02   1.413335       1.427120    
   18.40623      5.4329433E-02   1.451899       1.438423    
   17.84030      5.6052871E-02   1.472254       1.449395    
   17.29177      5.7830978E-02   1.457395       1.469251    
   16.76011      5.9665482E-02   1.452092       1.503593    
   16.24479      6.1558187E-02   1.512619       1.519109    
   15.74532      6.3510932E-02   1.555247       1.545157    
   15.26120      6.5525629E-02   1.571953       1.560189    
   14.79198      6.7604221E-02   1.565347       1.596648    
   14.33717      6.9748759E-02   1.613687       1.632588    
   13.89635      7.1961328E-02   1.650381       1.672768    
   13.46909      7.4244082E-02   1.707301       1.701756    
   13.05496      7.6599240E-02   1.764201       1.710705    
   12.65356      7.9029121E-02   1.836504       1.723159    
   12.26451      8.1536077E-02   1.774868       1.743302    
   11.88742      8.4122561E-02   1.627989       1.764241    
   11.52192      8.6791091E-02   1.712057       1.780990    
   11.16766      8.9544266E-02   1.711973       1.807476    
   10.82429      9.2384785E-02   1.811523       1.827257    
   10.49148      9.5315412E-02   1.874813       1.860196    
   10.16891      9.8338999E-02   1.898193       1.922988    
   9.856246      0.1014585       2.019360       1.953325    
   9.553200      0.1046770       2.014539       1.989841    
   9.259472      0.1079975       2.071313       2.044806    
   8.974774      0.1114234       2.032732       2.133453    
   8.698831      0.1149580       2.083372       2.341057    
   8.431372      0.1186047       2.015431       2.442378    
   8.172135      0.1223670       2.077132       2.503394    
   7.920870      0.1262487       2.361179       2.550985    
   7.677330      0.1302536       2.761281       2.603731    
   7.441278      0.1343855       3.284451       2.697177    
   7.212485      0.1386485       3.473699       2.743226    
   6.990726      0.1430467       3.114050       2.853571    
   6.775784      0.1475844       2.751549       3.046583    
   6.567452      0.1522661       2.585631       3.194887    
   6.365525      0.1570962       2.704267       3.360546    
   6.169807      0.1620796       2.813988       3.537387    
   5.980107      0.1672211       3.037274       3.741675    
   5.796239      0.1725257       3.341853       3.802074    
   5.618024      0.1779985       3.628215       3.849961    
   5.445289      0.1836450       3.844829       3.887778    
   5.277865      0.1894706       3.919345       3.835438    
   5.115589      0.1954809       4.301695       3.804087    
   4.958302      0.2016820       4.846069       3.817684    
   4.805851      0.2080797       5.413889       3.816866    
   4.658087      0.2146804       5.562995       3.763487    
   4.514867      0.2214905       4.984673       3.731146    
   4.376050      0.2285166       4.311240       3.700078    
   4.241501      0.2357656       4.287776       3.696381    
   4.111090      0.2432445       3.981644       3.626486    
   3.984688      0.2509607       3.663059       3.520615    
   3.862172      0.2589217       2.893333       3.460744    
   3.743424      0.2671351       3.037017       3.368680    
   3.628326      0.2756092       2.922934       3.343878    
   3.516768      0.2843520       2.857583       3.331251    
   3.408639      0.2933722       2.687904       3.352261    
   3.303835      0.3026786       2.721043       3.354280    
   3.202253      0.3122801       2.788864       3.411567    
   3.103795      0.3221862       3.051979       3.312994    
   3.008364      0.3324066       3.034241       3.183934    
   2.915867      0.3429512       3.019626       3.087540    
   2.826214      0.3538303       3.256816       2.951458    
   2.739317      0.3650545       3.094340       2.812433    
   2.655093      0.3766347       2.552770       2.706928    
   2.573457      0.3885823       2.221814       2.574811    
   2.494333      0.4009089       2.278524       2.431252    
   2.417640      0.4136265       2.288165       2.271938    
   2.343306      0.4267475       2.381696       2.177741    
   2.271257      0.4402848       2.512679       2.065718    
   2.201424      0.4542515       2.708906       1.950025    
   2.133738      0.4686611       3.309198       1.862554    
   2.068133      0.4835280       3.935492       1.736125    
   2.004544      0.4988664       4.390851       1.617388    
   1.942912      0.5146915       4.416763       1.526113    
   1.883174      0.5310184       4.369531       1.425196    
   1.825273      0.5478634       4.459243       1.315443    
   1.769152      0.5652427       4.517850       1.201705    
   1.714756      0.5831733       4.081170       1.106709    
   1.662033      0.6016726       3.179403      0.9852719    
   1.610931      0.6207589       2.443670      0.8754101    
   1.561401      0.6404505       2.057610      0.8239070    
   1.513393      0.6607669       1.722958      0.8239070    
   1.466861      0.6817277       1.460706      0.8036287    
   1.421760      0.7033534       1.340611      0.8036287    
   1.378046      0.7256652       1.186054      0.7831102    
   1.335676      0.7486846       1.041587      0.7831102    
   1.294608      0.7724344      0.9669518      0.7599915    
   1.254804      0.7969375      0.8503090      0.7599915    
   1.216223      0.8222179      0.6912668      0.7379694    
   1.178828      0.8483002      0.6078727      0.7379694    
   1.142583      0.8752099      0.5788985      0.7206855    
   1.107453      0.9029732      0.5607497      0.7206855    
   1.073402      0.9316174      0.4978074      0.7062516    
   1.040399      0.9611701      0.4203990      0.7062516    
   1.008410      0.9916603      0.3461181      0.7062516    
  0.9774047       1.023118      0.3296447      0.6909868    
  0.9473529       1.055573      0.3414083      0.6909868    
  0.9182250       1.089058      0.3667303      0.6909868    
  0.8899927       1.123605      0.3495611      0.6753282    
  0.8626285       1.159248      0.2942649      0.6753282    
  0.8361056       1.196021      0.2683150      0.6584334    
  0.8103982       1.233961      0.2675687      0.6584334    
  0.7854812       1.273105      0.2841545      0.6584334    
  0.7613303       1.313490      0.3241270      0.6398910    
  0.7379220       1.355157      0.3551665      0.6398910    
  0.7152334       1.398145      0.3574233      0.6398910    
  0.6932424       1.442497      0.3243160      0.6189919    
  0.6719276       1.488256      0.3081183      0.6189919    
  0.6512681       1.535466      0.3192704      0.6189919    
  0.6312438       1.584174      0.3024619      0.5915408    
  0.6118352       1.634427      0.2793029      0.5915408    
  0.5930234       1.686274      0.2565072      0.5915408    
  0.5747899       1.739766      0.2130121      0.5915408    
  0.5571171       1.794955      0.1816174      0.5570670    
  0.5399877       1.851894      0.1878572      0.5570670    
  0.5233849       1.910640      0.1775820      0.5570670    
  0.5072926       1.971249      0.1571930      0.5570670    
  0.4916950       2.033781      0.1417045      0.5171318    
  0.4765771       2.098296      0.1218149      0.5171318    
  0.4619240       2.164858      0.1003446      0.5171318    
  0.4477214       2.233532      8.1573643E-02  0.5171318    
  0.4339555       2.304384      7.5665295E-02  0.4760830    
  0.4206128       2.377483      7.5065486E-02  0.4760830    
  0.4076804       2.452902      7.7158287E-02  0.4760830    
  0.3951457       2.530712      7.5033948E-02  0.4760830    
  0.3829963       2.610991      6.5957479E-02  0.4346634    
  0.3712204       2.693817      5.6366559E-02  0.4346634    
  0.3598067       2.779270      5.3246059E-02  0.4346634    
  0.3487439       2.867434      4.9624547E-02  0.4346634    
  0.3380212       2.958395      4.7444034E-02  0.4346634    
  0.3276282       3.052241      4.7081552E-02  0.4346634    
  0.3175547       3.149064      4.3823432E-02  0.3913884    
  0.3077910       3.248958      3.8504209E-02  0.3913884    
  0.2983274       3.352021      3.3423457E-02  0.3913884    
  0.2891549       3.458354      2.9895972E-02  0.3913884    
  0.2802644       3.568060      2.7519681E-02  0.3913884    
  0.2716472       3.681245      2.6081244E-02  0.3913884    
  0.2632950       3.798022      2.5220729E-02  0.3465355    
  0.2551996       3.918502      2.4307555E-02  0.3465355    
  0.2473530       4.042805      2.3049755E-02  0.3465355    
  0.2397478       4.171050      2.1433484E-02  0.3465355    
  0.2323764       4.303364      1.9596685E-02  0.3465355    
  0.2252316       4.439875      1.7748896E-02  0.3465355    
  0.2183065       4.580716      1.5959749E-02  0.3465355    
  0.2115943       4.726026      1.4219437E-02  0.3054956    
  0.2050885       4.875944      1.3369163E-02  0.3054956    
  0.1987827       5.030619      1.2949600E-02  0.3054956    
  0.1926708       5.190199      1.2471825E-02  0.3054956    
  0.1867469       5.354843      1.1906367E-02  0.3054956    
  0.1810050       5.524709      1.1401958E-02  0.3054956    
  0.1754397       5.699963      1.0706975E-02  0.3054956    
  0.1700456       5.880777      9.8684002E-03  0.3054956    
  0.1648172       6.067327      9.0699112E-03  0.3054956    
  0.1597497       6.259794      8.3946101E-03  0.2735633    
  0.1548379       6.458367      7.8027272E-03  0.2735633    
  0.1500772       6.663239      7.2388812E-03  0.2735633    
  0.1454628       6.874609      6.7007947E-03  0.2735633    
  0.1409903       7.092686      6.1530885E-03  0.2735633    
  0.1366553       7.317679      5.6249802E-03  0.2735633    
  0.1324537       7.549810      5.1667569E-03  0.2735633    
  0.1283812       7.789305      4.7869822E-03  0.2735633    
  0.1244339       8.036396      4.4568353E-03  0.2735633    
  0.1206080       8.291327      4.1496372E-03  0.2735633    
  0.1168997       8.554343      3.8857097E-03  0.2735633    
  0.1133054       8.825704      3.6842229E-03  0.2735633    
  0.1098217       9.105672      3.4957735E-03  0.2491800    
  0.1064450       9.394522      3.3097647E-03  0.2491800    
  0.1031722       9.692533      3.1250590E-03  0.2491800    
  0.1000000       10.00000      2.9369828E-03  0.2491800    
