 Calculated PSA for the frequency range: 
 Station:   A54 
 Component: HHE
  0.1000000      Hz and    50.00000      Hz
         200 frequencies distributed logarithmically
 Oscillator damping is   5.000000     % of critical
  Freq.(Hz)       Period(s)      PSA(cm/s^2)  Smooth PSA(cm/s^2)
   50.00000      1.9999998E-02  0.3087631      0.3087631    
   48.46267      2.0634437E-02  0.3612138      0.3888872    
   46.97261      2.1289000E-02  0.4165605      0.4084770    
   45.52837      2.1964328E-02  0.4476566      0.4377111    
   44.12852      2.2661081E-02  0.4489164      0.4689358    
   42.77172      2.3379933E-02  0.5102346      0.4872153    
   41.45663      2.4121592E-02  0.5024948      0.5294279    
   40.18199      2.4886772E-02  0.5755545      0.5670814    
   38.94653      2.5676232E-02  0.6231948      0.6140172    
   37.74905      2.6490729E-02  0.6433021      0.6338159    
   36.58840      2.7331069E-02  0.6349509      0.6284505    
   35.46343      2.8198060E-02  0.6070985      0.6035585    
   34.37305      2.9092560E-02  0.5686261      0.5647280    
   33.31620      3.0015431E-02  0.5184594      0.5375164    
   32.29184      3.0967580E-02  0.5254635      0.5220543    
   31.29897      3.1949930E-02  0.5222401      0.5247238    
   30.33664      3.2963444E-02  0.5264679      0.5323959    
   29.40389      3.4009106E-02  0.5484797      0.5568488    
   28.49982      3.5087943E-02  0.5955989      0.5856020    
   27.62355      3.6201000E-02  0.6127275      0.6018856    
   26.77422      3.7349366E-02  0.5973303      0.5931303    
   25.95100      3.8534161E-02  0.5693330      0.5694184    
   25.15310      3.9756540E-02  0.5415918      0.5309927    
   24.37972      4.1017693E-02  0.4820535      0.4899638    
   23.63013      4.2318851E-02  0.4564803      0.4799774    
   22.90358      4.3661289E-02  0.4797298      0.4810322    
   22.19938      4.5046311E-02  0.5016458      0.4727980    
   21.51682      4.6475261E-02  0.4852515      0.4699937    
   20.85525      4.7949549E-02  0.4408825      0.4647881    
   20.21403      4.9470600E-02  0.4424591      0.4659307    
   19.59251      5.1039908E-02  0.4537020      0.4729861    
   18.99011      5.2658990E-02  0.5073584      0.4981557    
   18.40623      5.4329433E-02  0.5205286      0.5221487    
   17.84030      5.6052871E-02  0.5667303      0.5546498    
   17.29177      5.7830978E-02  0.5624244      0.5795404    
   16.76011      5.9665482E-02  0.6162077      0.6260567    
   16.24479      6.1558187E-02  0.6318108      0.6635833    
   15.74532      6.3510932E-02  0.6712201      0.7099349    
   15.26120      6.5525629E-02  0.7079471      0.7209359    
   14.79198      6.7604221E-02  0.7918900      0.7374849    
   14.33717      6.9748759E-02  0.8405336      0.7474493    
   13.89635      7.1961328E-02  0.7869429      0.7474136    
   13.46909      7.4244082E-02  0.7320505      0.7401620    
   13.05496      7.6599240E-02  0.7015612      0.7277446    
   12.65356      7.9029121E-02  0.6709695      0.7106698    
   12.26451      8.1536077E-02  0.6571863      0.7057414    
   11.88742      8.4122561E-02  0.7049682      0.7143186    
   11.52192      8.6791091E-02  0.7225703      0.7476932    
   11.16766      8.9544266E-02  0.7091094      0.7814354    
   10.82429      9.2384785E-02  0.7475162      0.8296616    
   10.49148      9.5315412E-02  0.8006679      0.8872678    
   10.16891      9.8338999E-02  0.9685580      0.9605247    
   9.856246      0.1014585       1.051373      0.9918540    
   9.553200      0.1046770       1.105005       1.018313    
   9.259472      0.1079975       1.175642       1.040131    
   8.974774      0.1114234       1.166850       1.049671    
   8.698831      0.1149580       1.157954       1.033723    
   8.431372      0.1186047       1.035863       1.035553    
   8.172135      0.1223670      0.9736964       1.034200    
   7.920870      0.1262487      0.9656951       1.022073    
   7.677330      0.1302536      0.8960717       1.006361    
   7.441278      0.1343855      0.9327329      0.9979049    
   7.212485      0.1386485      0.9752374       1.001779    
   6.990726      0.1430467      0.9905190      0.9890867    
   6.775784      0.1475844       1.035130      0.9856235    
   6.567452      0.1522661      0.9594876      0.9950649    
   6.365525      0.1570962      0.9870887       1.004452    
   6.169807      0.1620796       1.036077       1.023245    
   5.980107      0.1672211       1.027211       1.031335    
   5.796239      0.1725257       1.052142       1.033219    
   5.618024      0.1779985      0.9802637       1.037114    
   5.445289      0.1836450      0.9426621       1.032429    
   5.277865      0.1894706       1.030340       1.018000    
   5.115589      0.1954809       1.115318      0.9939912    
   4.958302      0.2016820       1.106503      0.9779213    
   4.805851      0.2080797       1.177963      0.9587331    
   4.658087      0.2146804       1.188197      0.9169464    
   4.514867      0.2214905      0.9958331      0.9016491    
   4.376050      0.2285166      0.9647501      0.8642964    
   4.241501      0.2357656       1.041454      0.8405891    
   4.111090      0.2432445       1.031656      0.7973233    
   3.984688      0.2509607      0.9116561      0.7571208    
   3.862172      0.2589217      0.7582710      0.7308394    
   3.743424      0.2671351      0.7949762      0.6844383    
   3.628326      0.2756092      0.7779726      0.6513864    
   3.516768      0.2843520      0.6380904      0.6187613    
   3.408639      0.2933722      0.6033249      0.5714352    
   3.303835      0.3026786      0.5664786      0.5253780    
   3.202253      0.3122801      0.5508145      0.5019849    
   3.103795      0.3221862      0.5804070      0.4589641    
   3.008364      0.3324066      0.5422511      0.4245254    
   2.915867      0.3429512      0.5274945      0.4095497    
   2.826214      0.3538303      0.5068734      0.3810039    
   2.739317      0.3650545      0.4368222      0.3530692    
   2.655093      0.3766347      0.3456507      0.3451678    
   2.573457      0.3885823      0.2706777      0.3223157    
   2.494333      0.4009089      0.2787038      0.3130380    
   2.417640      0.4136265      0.2593421      0.2896164    
   2.343306      0.4267475      0.2595858      0.2748911    
   2.271257      0.4402848      0.2487680      0.2694405    
   2.201424      0.4542515      0.2159830      0.2538351    
   2.133738      0.4686611      0.1943883      0.2467364    
   2.068133      0.4835280      0.1691896      0.2284232    
   2.004544      0.4988664      0.1448331      0.2122023    
   1.942912      0.5146915      0.1606452      0.2021339    
   1.883174      0.5310184      0.1657954      0.1871675    
   1.825273      0.5478634      0.1558330      0.1744889    
   1.769152      0.5652427      0.1475496      0.1580512    
   1.714756      0.5831733      0.1312331      0.1469026    
   1.662033      0.6016726      0.1172335      0.1298466    
   1.610931      0.6207589      0.1102398      0.1157763    
   1.561401      0.6404505      0.1163610      0.1074243    
   1.513393      0.6607669      0.1330848      0.1074243    
   1.466861      0.6817277      0.1422969      0.1034351    
   1.421760      0.7033534      0.1526520      0.1034351    
   1.378046      0.7256652      0.1482682      9.9508628E-02
   1.335676      0.7486846      0.1412910      9.9508628E-02
   1.294608      0.7724344      0.1603297      9.5701486E-02
   1.254804      0.7969375      0.1726723      9.5701486E-02
   1.216223      0.8222179      0.1819786      9.2483364E-02
   1.178828      0.8483002      0.2002033      9.2483364E-02
   1.142583      0.8752099      0.2072897      9.0072252E-02
   1.107453      0.9029732      0.2097460      9.0072252E-02
   1.073402      0.9316174      0.2145321      8.8335663E-02
   1.040399      0.9611701      0.1794566      8.8335663E-02
   1.008410      0.9916603      0.1554638      8.8335663E-02
  0.9774047       1.023118      0.1463184      8.6487427E-02
  0.9473529       1.055573      0.1421273      8.6487427E-02
  0.9182250       1.089058      0.1484734      8.6487427E-02
  0.8899927       1.123605      0.1617934      8.4792770E-02
  0.8626285       1.159248      0.1792779      8.4792770E-02
  0.8361056       1.196021      0.1896740      8.3062150E-02
  0.8103982       1.233961      0.1847657      8.3062150E-02
  0.7854812       1.273105      0.1722562      8.3062150E-02
  0.7613303       1.313490      0.1700751      8.1405096E-02
  0.7379220       1.355157      0.1707312      8.1405096E-02
  0.7152334       1.398145      0.1659658      8.1405096E-02
  0.6932424       1.442497      0.1452445      8.0045722E-02
  0.6719276       1.488256      0.1188954      8.0045722E-02
  0.6512681       1.535466      9.9837400E-02  8.0045722E-02
  0.6312438       1.584174      0.1032631      7.8878962E-02
  0.6118352       1.634427      0.1136714      7.8878962E-02
  0.5930234       1.686274      0.1134002      7.8878962E-02
  0.5747899       1.739766      0.1073643      7.8878962E-02
  0.5571171       1.794955      0.1000089      7.7947930E-02
  0.5399877       1.851894      8.7472960E-02  7.7947930E-02
  0.5233849       1.910640      7.2270572E-02  7.7947930E-02
  0.5072926       1.971249      5.7914346E-02  7.7947930E-02
  0.4916950       2.033781      4.9149014E-02  7.7251203E-02
  0.4765771       2.098296      4.7833882E-02  7.7251203E-02
  0.4619240       2.164858      4.3987896E-02  7.7251203E-02
  0.4477214       2.233532      4.3319993E-02  7.7251203E-02
  0.4339555       2.304384      4.5360826E-02  7.6373376E-02
  0.4206128       2.377483      4.8476059E-02  7.6373376E-02
  0.4076804       2.452902      4.5231789E-02  7.6373376E-02
  0.3951457       2.530712      3.7979972E-02  7.6373376E-02
  0.3829963       2.610991      3.3381518E-02  7.5422078E-02
  0.3712204       2.693817      3.1526338E-02  7.5422078E-02
  0.3598067       2.779270      3.0086780E-02  7.5422078E-02
  0.3487439       2.867434      2.7350640E-02  7.5422078E-02
  0.3380212       2.958395      2.6376238E-02  7.5422078E-02
  0.3276282       3.052241      2.3389783E-02  7.5422078E-02
  0.3175547       3.149064      2.0827597E-02  7.4557446E-02
  0.3077910       3.248958      2.0309703E-02  7.4557446E-02
  0.2983274       3.352021      1.9889915E-02  7.4557446E-02
  0.2891549       3.458354      2.0182554E-02  7.4557446E-02
  0.2802644       3.568060      2.1862645E-02  7.4557446E-02
  0.2716472       3.681245      2.0829299E-02  7.4557446E-02
  0.2632950       3.798022      1.7850745E-02  7.3764049E-02
  0.2551996       3.918502      1.6341299E-02  7.3764049E-02
  0.2473530       4.042805      1.7895829E-02  7.3764049E-02
  0.2397478       4.171050      2.0401543E-02  7.3764049E-02
  0.2323764       4.303364      2.1746177E-02  7.3764049E-02
  0.2252316       4.439875      2.1423576E-02  7.3764049E-02
  0.2183065       4.580716      2.0773984E-02  7.3764049E-02
  0.2115943       4.726026      1.8694937E-02  7.3132522E-02
  0.2050885       4.875944      1.7315188E-02  7.3132522E-02
  0.1987827       5.030619      1.4938565E-02  7.3132522E-02
  0.1926708       5.190199      1.2442145E-02  7.3132522E-02
  0.1867469       5.354843      1.0310767E-02  7.3132522E-02
  0.1810050       5.524709      8.7273540E-03  7.3132522E-02
  0.1754397       5.699963      7.9913950E-03  7.3132522E-02
  0.1700456       5.880777      7.8317150E-03  7.3132522E-02
  0.1648172       6.067327      7.4630599E-03  7.3132522E-02
  0.1597497       6.259794      6.7464826E-03  7.2642513E-02
  0.1548379       6.458367      5.9763184E-03  7.2642513E-02
  0.1500772       6.663239      5.1812339E-03  7.2642513E-02
  0.1454628       6.874609      4.5842687E-03  7.2642513E-02
  0.1409903       7.092686      4.3260823E-03  7.2642513E-02
  0.1366553       7.317679      4.2613028E-03  7.2642513E-02
  0.1324537       7.549810      4.0406804E-03  7.2642513E-02
  0.1283812       7.789305      4.1463072E-03  7.2642513E-02
  0.1244339       8.036396      3.8850531E-03  7.2642513E-02
  0.1206080       8.291327      3.5052707E-03  7.2642513E-02
  0.1168997       8.554343      3.1529472E-03  7.2642513E-02
  0.1133054       8.825704      2.8268739E-03  7.2642513E-02
  0.1098217       9.105672      2.5951236E-03  7.2220065E-02
  0.1064450       9.394522      2.3595463E-03  7.2220065E-02
  0.1031722       9.692533      2.1370715E-03  7.2220065E-02
  0.1000000       10.00000      1.9332008E-03  7.2220065E-02
