 Calculated PSA for the frequency range: 
 Station:   A64 
 Component: HHE
  0.1000000      Hz and    50.00000      Hz
         200 frequencies distributed logarithmically
 Oscillator damping is   5.000000     % of critical
  Freq.(Hz)       Period(s)      PSA(cm/s^2)  Smooth PSA(cm/s^2)
   50.00000      1.9999998E-02  0.1975240      0.1975240    
   48.46267      2.0634437E-02  0.1976298      0.1976190    
   46.97261      2.1289000E-02  0.1976082      0.1975895    
   45.52837      2.1964328E-02  0.1975305      0.1976455    
   44.12852      2.2661081E-02  0.1977978      0.1980711    
   42.77172      2.3379933E-02  0.1988850      0.1991423    
   41.45663      2.4121592E-02  0.2007441      0.2007115    
   40.18199      2.4886772E-02  0.2025054      0.2023314    
   38.94653      2.5676232E-02  0.2037447      0.2033769    
   37.74905      2.6490729E-02  0.2038806      0.2040426    
   36.58840      2.7331069E-02  0.2045024      0.2040537    
   35.46343      2.8198060E-02  0.2037780      0.2042031    
   34.37305      2.9092560E-02  0.2043287      0.2049672    
   33.31620      3.0015431E-02  0.2067948      0.2064069    
   32.29184      3.0967580E-02  0.2080972      0.2075005    
   31.29897      3.1949930E-02  0.2076096      0.2088501    
   30.33664      3.2963444E-02  0.2108434      0.2099177    
   29.40389      3.4009106E-02  0.2113001      0.2120079    
   28.49982      3.5087943E-02  0.2138801      0.2122447    
   27.62355      3.6201000E-02  0.2115541      0.2107242    
   26.77422      3.7349366E-02  0.2067383      0.2069180    
   25.95100      3.8534161E-02  0.2024616      0.2061287    
   25.15310      3.9756540E-02  0.2091864      0.2102888    
   24.37972      4.1017693E-02  0.2192186      0.2214100    
   23.63013      4.2318851E-02  0.2203238      0.2299785    
   22.90358      4.3661289E-02  0.2369111      0.2317199    
   22.19938      4.5046311E-02  0.2434606      0.2334275    
   21.51682      4.6475261E-02  0.2386854      0.2373053    
   20.85525      4.7949549E-02  0.2277565      0.2372710    
   20.21403      4.9470600E-02  0.2397130      0.2392876    
   19.59251      5.1039908E-02  0.2367397      0.2462548    
   18.99011      5.2658990E-02  0.2535434      0.2573349    
   18.40623      5.4329433E-02  0.2735216      0.2699960    
   17.84030      5.6052871E-02  0.2831567      0.2940649    
   17.29177      5.7830978E-02  0.3030187      0.3186310    
   16.76011      5.9665482E-02  0.3570841      0.3448760    
   16.24479      6.1558187E-02  0.3763737      0.3541060    
   15.74532      6.3510932E-02  0.3718261      0.3603916    
   15.26120      6.5525629E-02  0.3777964      0.3596478    
   14.79198      6.7604221E-02  0.3385372      0.3562072    
   14.33717      6.9748759E-02  0.3407324      0.3519821    
   13.89635      7.1961328E-02  0.3551843      0.3563639    
   13.46909      7.4244082E-02  0.3330004      0.3607936    
   13.05496      7.6599240E-02  0.3467975      0.3712659    
   12.65356      7.9029121E-02  0.4024991      0.3764247    
   12.26451      8.1536077E-02  0.4088041      0.3760478    
   11.88742      8.4122561E-02  0.4118437      0.3772870    
   11.52192      8.6791091E-02  0.3856824      0.3797255    
   11.16766      8.9544266E-02  0.3675860      0.3796471    
   10.82429      9.2384785E-02  0.3521696      0.3817673    
   10.49148      9.5315412E-02  0.3429134      0.3842429    
   10.16891      9.8338999E-02  0.3663052      0.3979242    
   9.856246      0.1014585      0.3790208      0.4103363    
   9.553200      0.1046770      0.4215803      0.4201377    
   9.259472      0.1079975      0.4310849      0.4273201    
   8.974774      0.1114234      0.4410110      0.4355889    
   8.698831      0.1149580      0.4918888      0.4348453    
   8.431372      0.1186047      0.5098038      0.4391671    
   8.172135      0.1223670      0.4655993      0.4468170    
   7.920870      0.1262487      0.4239928      0.4535226    
   7.677330      0.1302536      0.4256027      0.4603111    
   7.441278      0.1343855      0.4269657      0.4702472    
   7.212485      0.1386485      0.4352887      0.4773793    
   6.990726      0.1430467      0.4181657      0.4843976    
   6.775784      0.1475844      0.4708197      0.4949920    
   6.567452      0.1522661      0.5020481      0.5080857    
   6.365525      0.1570962      0.5125467      0.5244911    
   6.169807      0.1620796      0.5079620      0.5395843    
   5.980107      0.1672211      0.5225294      0.5589013    
   5.796239      0.1725257      0.5700966      0.5751753    
   5.618024      0.1779985      0.5901441      0.5890331    
   5.445289      0.1836450      0.5542306      0.6101353    
   5.277865      0.1894706      0.5988876      0.6141397    
   5.115589      0.1954809      0.6620050      0.6240141    
   4.958302      0.2016820      0.6700724      0.6297544    
   4.805851      0.2080797      0.6520022      0.6328208    
   4.658087      0.2146804      0.6712005      0.6234392    
   4.514867      0.2214905      0.7363560      0.6117947    
   4.376050      0.2285166      0.7036247      0.5931768    
   4.241501      0.2357656      0.6708708      0.5842283    
   4.111090      0.2432445      0.6854545      0.5641056    
   3.984688      0.2509607      0.7015827      0.5440684    
   3.862172      0.2589217      0.6862215      0.5341869    
   3.743424      0.2671351      0.6337073      0.5144840    
   3.628326      0.2756092      0.6487389      0.4959723    
   3.516768      0.2843520      0.6168530      0.4816418    
   3.408639      0.2933722      0.5738760      0.4590769    
   3.303835      0.3026786      0.5097909      0.4365992    
   3.202253      0.3122801      0.4339771      0.4226718    
   3.103795      0.3221862      0.3672612      0.4023483    
   3.008364      0.3324066      0.3378570      0.3810871    
   2.915867      0.3429512      0.3682553      0.3705171    
   2.826214      0.3538303      0.3642795      0.3513203    
   2.739317      0.3650545      0.3676216      0.3352810    
   2.655093      0.3766347      0.3238073      0.3304306    
   2.573457      0.3885823      0.3035199      0.3185347    
   2.494333      0.4009089      0.3037240      0.3145275    
   2.417640      0.4136265      0.2973113      0.2997346    
   2.343306      0.4267475      0.3041594      0.2862647    
   2.271257      0.4402848      0.2969381      0.2789754    
   2.201424      0.4542515      0.2517573      0.2654850    
   2.133738      0.4686611      0.2403704      0.2615760    
   2.068133      0.4835280      0.2464215      0.2523955    
   2.004544      0.4988664      0.2494921      0.2415858    
   1.942912      0.5146915      0.2252744      0.2330751    
   1.883174      0.5310184      0.2049474      0.2181060    
   1.825273      0.5478634      0.2093254      0.2034340    
   1.769152      0.5652427      0.2088313      0.1858640    
   1.714756      0.5831733      0.2047623      0.1718915    
   1.662033      0.6016726      0.2019660      0.1537247    
   1.610931      0.6207589      0.2009086      0.1368893    
   1.561401      0.6404505      0.1907600      0.1298819    
   1.513393      0.6607669      0.2038016      0.1298819    
   1.466861      0.6817277      0.1948745      0.1279739    
   1.421760      0.7033534      0.1762101      0.1279739    
   1.378046      0.7256652      0.1734820      0.1257490    
   1.335676      0.7486846      0.1711796      0.1257490    
   1.294608      0.7724344      0.1879377      0.1235198    
   1.254804      0.7969375      0.2087229      0.1235198    
   1.216223      0.8222179      0.2288488      0.1212169    
   1.178828      0.8483002      0.2428458      0.1212169    
   1.142583      0.8752099      0.2538425      0.1192875    
   1.107453      0.9029732      0.2624151      0.1192875    
   1.073402      0.9316174      0.2709749      0.1175160    
   1.040399      0.9611701      0.2624653      0.1175160    
   1.008410      0.9916603      0.2418385      0.1175160    
  0.9774047       1.023118      0.2283073      0.1157082    
  0.9473529       1.055573      0.2126796      0.1157082    
  0.9182250       1.089058      0.1943850      0.1157082    
  0.8899927       1.123605      0.1774580      0.1139277    
  0.8626285       1.159248      0.1619425      0.1139277    
  0.8361056       1.196021      0.1561095      0.1120443    
  0.8103982       1.233961      0.1662478      0.1120443    
  0.7854812       1.273105      0.1646825      0.1120443    
  0.7613303       1.313490      0.1649274      0.1101953    
  0.7379220       1.355157      0.1496847      0.1101953    
  0.7152334       1.398145      0.1620516      0.1101953    
  0.6932424       1.442497      0.1757026      0.1087654    
  0.6719276       1.488256      0.1904421      0.1087654    
  0.6512681       1.535466      0.2114068      0.1087654    
  0.6312438       1.584174      0.2233586      0.1074225    
  0.6118352       1.634427      0.2270324      0.1074225    
  0.5930234       1.686274      0.2255272      0.1074225    
  0.5747899       1.739766      0.2158962      0.1074225    
  0.5571171       1.794955      0.2066439      0.1059895    
  0.5399877       1.851894      0.1906238      0.1059895    
  0.5233849       1.910640      0.1672936      0.1059895    
  0.5072926       1.971249      0.1392796      0.1059895    
  0.4916950       2.033781      0.1216472      0.1044947    
  0.4765771       2.098296      0.1037912      0.1044947    
  0.4619240       2.164858      9.4200924E-02  0.1044947    
  0.4477214       2.233532      8.4994704E-02  0.1044947    
  0.4339555       2.304384      7.5430341E-02  0.1032233    
  0.4206128       2.377483      6.4504154E-02  0.1032233    
  0.4076804       2.452902      5.3313117E-02  0.1032233    
  0.3951457       2.530712      4.6983704E-02  0.1032233    
  0.3829963       2.610991      4.2525437E-02  0.1021412    
  0.3712204       2.693817      3.8974132E-02  0.1021412    
  0.3598067       2.779270      3.5962932E-02  0.1021412    
  0.3487439       2.867434      3.2987125E-02  0.1021412    
  0.3380212       2.958395      3.0188598E-02  0.1021412    
  0.3276282       3.052241      2.7605601E-02  0.1021412    
  0.3175547       3.149064      2.4909215E-02  0.1009886    
  0.3077910       3.248958      2.2379924E-02  0.1009886    
  0.2983274       3.352021      2.0313185E-02  0.1009886    
  0.2891549       3.458354      1.8943200E-02  0.1009886    
  0.2802644       3.568060      1.7973242E-02  0.1009886    
  0.2716472       3.681245      1.6839301E-02  0.1009886    
  0.2632950       3.798022      1.5689768E-02  9.9816434E-02
  0.2551996       3.918502      1.4523068E-02  9.9816434E-02
  0.2473530       4.042805      1.3338897E-02  9.9816434E-02
  0.2397478       4.171050      1.2154346E-02  9.9816434E-02
  0.2323764       4.303364      1.0933852E-02  9.9816434E-02
  0.2252316       4.439875      9.8055778E-03  9.9816434E-02
  0.2183065       4.580716      8.9955898E-03  9.9816434E-02
  0.2115943       4.726026      9.7557791E-03  9.8663181E-02
  0.2050885       4.875944      9.9141849E-03  9.8663181E-02
  0.1987827       5.030619      9.3952892E-03  9.8663181E-02
  0.1926708       5.190199      9.7620394E-03  9.8663181E-02
  0.1867469       5.354843      9.8981271E-03  9.8663181E-02
  0.1810050       5.524709      9.9443551E-03  9.8663181E-02
  0.1754397       5.699963      8.9657959E-03  9.8663181E-02
  0.1700456       5.880777      8.3569335E-03  9.8663181E-02
  0.1648172       6.067327      7.2697774E-03  9.8663181E-02
  0.1597497       6.259794      6.6796392E-03  9.7515374E-02
  0.1548379       6.458367      5.9618009E-03  9.7515374E-02
  0.1500772       6.663239      5.1597939E-03  9.7515374E-02
  0.1454628       6.874609      4.4020661E-03  9.7515374E-02
  0.1409903       7.092686      3.7307222E-03  9.7515374E-02
  0.1366553       7.317679      3.1646769E-03  9.7515374E-02
  0.1324537       7.549810      2.7707918E-03  9.7515374E-02
  0.1283812       7.789305      2.5924426E-03  9.7515374E-02
  0.1244339       8.036396      2.4154466E-03  9.7515374E-02
  0.1206080       8.291327      2.2371672E-03  9.7515374E-02
  0.1168997       8.554343      2.1048703E-03  9.7515374E-02
  0.1133054       8.825704      2.0912692E-03  9.7515374E-02
  0.1098217       9.105672      2.0129115E-03  9.6353650E-02
  0.1064450       9.394522      1.8678331E-03  9.6353650E-02
  0.1031722       9.692533      1.6688558E-03  9.6353650E-02
  0.1000000       10.00000      1.5634339E-03  9.6353650E-02
