 Calculated PSA for the frequency range: 
 Station:   WBO 
 Component: EHZ
  0.1000000      Hz and    50.00000      Hz
         200 frequencies distributed logarithmically
 Oscillator damping is   5.000000     % of critical
  Freq.(Hz)       Period(s)      PSA(cm/s^2)  Smooth PSA(cm/s^2)
   50.00000      1.9999998E-02   6.064470       6.064470    
   48.46267      2.0634437E-02   6.093105       6.108232    
   46.97261      2.1289000E-02   6.123358       6.123084    
   45.52837      2.1964328E-02   6.152787       6.149570    
   44.12852      2.2661081E-02   6.172566       6.173255    
   42.77172      2.3379933E-02   6.194413       6.210064    
   41.45663      2.4121592E-02   6.263216       6.274677    
   40.18199      2.4886772E-02   6.366405       6.374859    
   38.94653      2.5676232E-02   6.494956       6.523985    
   37.74905      2.6490729E-02   6.710595       6.708267    
   36.58840      2.7331069E-02   6.919249       6.913413    
   35.46343      2.8198060E-02   7.110394       7.099607    
   34.37305      2.9092560E-02   7.269180       7.234194    
   33.31620      3.0015431E-02   7.323007       7.332117    
   32.29184      3.0967580E-02   7.404163       7.376209    
   31.29897      3.1949930E-02   7.401455       7.317498    
   30.33664      3.2963444E-02   7.146876       7.315733    
   29.40389      3.4009106E-02   7.398867       7.232658    
   28.49982      3.5087943E-02   7.152233       7.165476    
   27.62355      3.6201000E-02   6.945329       7.014858    
   26.77422      3.7349366E-02   6.947014       7.053669    
   25.95100      3.8534161E-02   7.268663       7.268345    
   25.15310      3.9756540E-02   7.589357       7.539330    
   24.37972      4.1017693E-02   7.759971       7.740006    
   23.63013      4.2318851E-02   7.941412       7.770664    
   22.90358      4.3661289E-02   7.669285       7.754246    
   22.19938      4.5046311E-02   7.711988       7.744526    
   21.51682      4.6475261E-02   7.688573       7.784750    
   20.85525      4.7949549E-02   7.711371       7.990331    
   20.21403      4.9470600E-02   8.142528       8.315365    
   19.59251      5.1039908E-02   8.697194       8.841043    
   18.99011      5.2658990E-02   9.337157       9.454754    
   18.40623      5.4329433E-02   10.31696       9.924880    
   17.84030      5.6052871E-02   10.77993       10.24814    
   17.29177      5.7830978E-02   10.49316       10.50935    
   16.76011      5.9665482E-02   10.31348       11.32086    
   16.24479      6.1558187E-02   10.64321       11.95893    
   15.74532      6.3510932E-02   11.80523       12.77449    
   15.26120      6.5525629E-02   13.89013       13.19180    
   14.79198      6.7604221E-02   14.60839       13.94006    
   14.33717      6.9748759E-02   15.38647       14.66415    
   13.89635      7.1961328E-02   15.69573       15.21607    
   13.46909      7.4244082E-02   15.55125       15.50223    
   13.05496      7.6599240E-02   15.71187       15.48237    
   12.65356      7.9029121E-02   15.66862       15.44332    
   12.26451      8.1536077E-02   15.89330       15.52557    
   11.88742      8.4122561E-02   14.46933       15.59912    
   11.52192      8.6791091E-02   14.66662       15.38649    
   11.16766      8.9544266E-02   15.88982       15.19736    
   10.82429      9.2384785E-02   16.35379       14.88945    
   10.49148      9.5315412E-02   16.13963       14.86816    
   10.16891      9.8338999E-02   14.01079       15.70241    
   9.856246      0.1014585       13.68435       16.09484    
   9.553200      0.1046770       12.89738       16.33332    
   9.259472      0.1079975       15.70174       16.60281    
   8.974774      0.1114234       18.13247       17.06469    
   8.698831      0.1149580       19.54748       17.99844    
   8.431372      0.1186047       18.59092       18.62387    
   8.172135      0.1223670       18.27462       19.01504    
   7.920870      0.1262487       19.04873       19.35632    
   7.677330      0.1302536       20.75840       19.47840    
   7.441278      0.1343855       22.18040       19.46736    
   7.212485      0.1386485       23.15400       19.77360    
   6.990726      0.1430467       21.51591       20.25246    
   6.775784      0.1475844       18.37840       21.03946    
   6.567452      0.1522661       16.99282       21.16903    
   6.365525      0.1570962       17.16667       20.95593    
   6.169807      0.1620796       17.40779       20.34464    
   5.980107      0.1672211       20.05956       19.12390    
   5.796239      0.1725257       23.75474       18.33052    
   5.618024      0.1779985       26.25152       17.52033    
   5.445289      0.1836450       26.45829       16.39265    
   5.277865      0.1894706       24.19014       15.97051    
   5.115589      0.1954809       20.21816       14.93921    
   4.958302      0.2016820       15.85218       14.40899    
   4.805851      0.2080797       11.58913       13.87008    
   4.658087      0.2146804       10.49018       12.96242    
   4.514867      0.2214905       9.446383       12.61989    
   4.376050      0.2285166       8.692966       11.65118    
   4.241501      0.2357656       9.380849       10.82797    
   4.111090      0.2432445       9.627323       9.642720    
   3.984688      0.2509607       9.110569       9.179329    
   3.862172      0.2589217       8.371928       8.280747    
   3.743424      0.2671351       7.351907       7.315506    
   3.628326      0.2756092       6.371095       7.024390    
   3.516768      0.2843520       6.388466       6.419304    
   3.408639      0.2933722       6.388404       5.868897    
   3.303835      0.3026786       6.346890       5.542792    
   3.202253      0.3122801       5.870065       5.458972    
   3.103795      0.3221862       5.426932       5.242373    
   3.008364      0.3324066       5.164142       5.070444    
   2.915867      0.3429512       5.234982       5.019026    
   2.826214      0.3538303       4.820755       4.866978    
   2.739317      0.3650545       4.457125       4.688229    
   2.655093      0.3766347       4.176412       4.611761    
   2.573457      0.3885823       3.843977       4.398724    
   2.494333      0.4009089       3.393286       4.243326    
   2.417640      0.4136265       3.095207       3.964081    
   2.343306      0.4267475       3.135969       3.757343    
   2.271257      0.4402848       3.273397       3.594809    
   2.201424      0.4542515       3.165431       3.364541    
   2.133738      0.4686611       3.023227       3.216652    
   2.068133      0.4835280       2.670658       2.979156    
   2.004544      0.4988664       2.718165       2.756732    
   1.942912      0.5146915       3.041095       2.606755    
   1.883174      0.5310184       3.471206       2.412860    
   1.825273      0.5478634       3.877586       2.231923    
   1.769152      0.5652427       4.116779       2.019914    
   1.714756      0.5831733       4.202734       1.862147    
   1.662033      0.6016726       4.241572       1.646755    
   1.610931      0.6207589       4.343212       1.464063    
   1.561401      0.6404505       4.367684       1.375225    
   1.513393      0.6607669       4.303535       1.375225    
   1.466861      0.6817277       4.178111       1.340465    
   1.421760      0.7033534       4.060306       1.340465    
   1.378046      0.7256652       4.016036       1.304404    
   1.335676      0.7486846       3.918116       1.304404    
   1.294608      0.7724344       3.743403       1.271541    
   1.254804      0.7969375       3.533240       1.271541    
   1.216223      0.8222179       3.262127       1.241489    
   1.178828      0.8483002       2.979136       1.241489    
   1.142583      0.8752099       2.752215       1.213537    
   1.107453      0.9029732       2.539332       1.213537    
   1.073402      0.9316174       2.301325       1.188244    
   1.040399      0.9611701       2.063130       1.188244    
   1.008410      0.9916603       1.838790       1.188244    
  0.9774047       1.023118       1.631024       1.166836    
  0.9473529       1.055573       1.477932       1.166836    
  0.9182250       1.089058       1.363761       1.166836    
  0.8899927       1.123605       1.254869       1.147931    
  0.8626285       1.159248       1.157708       1.147931    
  0.8361056       1.196021       1.068227       1.128247    
  0.8103982       1.233961      0.9891856       1.128247    
  0.7854812       1.273105      0.9253768       1.128247    
  0.7613303       1.313490      0.8527429       1.106795    
  0.7379220       1.355157      0.7788855       1.106795    
  0.7152334       1.398145      0.7056969       1.106795    
  0.6932424       1.442497      0.6512731       1.086001    
  0.6719276       1.488256      0.5994936       1.086001    
  0.6512681       1.535466      0.5610464       1.086001    
  0.6312438       1.584174      0.5325683       1.066234    
  0.6118352       1.634427      0.5110750       1.066234    
  0.5930234       1.686274      0.4974194       1.066234    
  0.5747899       1.739766      0.4677250       1.066234    
  0.5571171       1.794955      0.4294536       1.049693    
  0.5399877       1.851894      0.3980317       1.049693    
  0.5233849       1.910640      0.3675552       1.049693    
  0.5072926       1.971249      0.3406390       1.049693    
  0.4916950       2.033781      0.3194525       1.032313    
  0.4765771       2.098296      0.2958913       1.032313    
  0.4619240       2.164858      0.2685020       1.032313    
  0.4477214       2.233532      0.2446627       1.032313    
  0.4339555       2.304384      0.2277836       1.011168    
  0.4206128       2.377483      0.2144845       1.011168    
  0.4076804       2.452902      0.2006885       1.011168    
  0.3951457       2.530712      0.1869097       1.011168    
  0.3829963       2.610991      0.1765403      0.9849976    
  0.3712204       2.693817      0.1693484      0.9849976    
  0.3598067       2.779270      0.1611002      0.9849976    
  0.3487439       2.867434      0.1481387      0.9849976    
  0.3380212       2.958395      0.1325826      0.9849976    
  0.3276282       3.052241      0.1191399      0.9849976    
  0.3175547       3.149064      0.1095458      0.9538945    
  0.3077910       3.248958      0.1017949      0.9538945    
  0.2983274       3.352021      9.3671344E-02  0.9538945    
  0.2891549       3.458354      8.5103706E-02  0.9538945    
  0.2802644       3.568060      8.0444619E-02  0.9538945    
  0.2716472       3.681245      7.5237326E-02  0.9538945    
  0.2632950       3.798022      7.0343070E-02  0.9195154    
  0.2551996       3.918502      6.6387773E-02  0.9195154    
  0.2473530       4.042805      6.3104674E-02  0.9195154    
  0.2397478       4.171050      5.9783541E-02  0.9195154    
  0.2323764       4.303364      5.5868138E-02  0.9195154    
  0.2252316       4.439875      5.1390946E-02  0.9195154    
  0.2183065       4.580716      4.6803452E-02  0.9195154    
  0.2115943       4.726026      4.2572018E-02  0.8834360    
  0.2050885       4.875944      3.8948260E-02  0.8834360    
  0.1987827       5.030619      3.7260834E-02  0.8834360    
  0.1926708       5.190199      3.5498343E-02  0.8834360    
  0.1867469       5.354843      3.3705786E-02  0.8834360    
  0.1810050       5.524709      3.1920210E-02  0.8834360    
  0.1754397       5.699963      3.0167272E-02  0.8834360    
  0.1700456       5.880777      2.8402153E-02  0.8834360    
  0.1648172       6.067327      2.6556959E-02  0.8834360    
  0.1597497       6.259794      2.4694229E-02  0.8461234    
  0.1548379       6.458367      2.2905489E-02  0.8461234    
  0.1500772       6.663239      2.1258079E-02  0.8461234    
  0.1454628       6.874609      1.9856619E-02  0.8461234    
  0.1409903       7.092686      1.8732123E-02  0.8461234    
  0.1366553       7.317679      1.7634911E-02  0.8461234    
  0.1324537       7.549810      1.6590958E-02  0.8461234    
  0.1283812       7.789305      1.5662681E-02  0.8461234    
  0.1244339       8.036396      1.4864552E-02  0.8461234    
  0.1206080       8.291327      1.4187854E-02  0.8461234    
  0.1168997       8.554343      1.3568744E-02  0.8461234    
  0.1133054       8.825704      1.3018035E-02  0.8461234    
  0.1098217       9.105672      1.2500461E-02  0.8068303    
  0.1064450       9.394522      1.2002286E-02  0.8068303    
  0.1031722       9.692533      1.1509212E-02  0.8068303    
  0.1000000       10.00000      1.0993496E-02  0.8068303    
