 Calculated PSA for the frequency range: 
 Station:   PKRO
 Component: HHE
  0.1000000      Hz and    50.00000      Hz
         200 frequencies distributed logarithmically
 Oscillator damping is   5.000000     % of critical
  Freq.(Hz)       Period(s)      PSA(cm/s^2)  Smooth PSA(cm/s^2)
   50.00000      1.9999998E-02   2.942099       2.942099    
   48.46267      2.0634437E-02   2.945837       2.947844    
   46.97261      2.1289000E-02   2.949852       2.950023    
   45.52837      2.1964328E-02   2.954381       2.954497    
   44.12852      2.2661081E-02   2.959259       2.958919    
   42.77172      2.3379933E-02   2.963118       2.959929    
   41.45663      2.4121592E-02   2.957410       2.954524    
   40.18199      2.4886772E-02   2.943045       2.945713    
   38.94653      2.5676232E-02   2.936683       2.936654    
   37.74905      2.6490729E-02   2.930233       2.941800    
   36.58840      2.7331069E-02   2.958485       2.954596    
   35.46343      2.8198060E-02   2.975068       2.972101    
   34.37305      2.9092560E-02   2.982752       2.983562    
   33.31620      3.0015431E-02   2.992868       2.996589    
   32.29184      3.0967580E-02   3.014147       3.013192    
   31.29897      3.1949930E-02   3.032562       3.032457    
   30.33664      3.2963444E-02   3.050663       3.045705    
   29.40389      3.4009106E-02   3.053890       3.048530    
   28.49982      3.5087943E-02   3.041036       3.034950    
   27.62355      3.6201000E-02   3.009926       3.017974    
   26.77422      3.7349366E-02   3.002960       3.013988    
   25.95100      3.8534161E-02   3.029077       3.034652    
   25.15310      3.9756540E-02   3.071919       3.071156    
   24.37972      4.1017693E-02   3.112470       3.111172    
   23.63013      4.2318851E-02   3.122416       3.132424    
   22.90358      4.3661289E-02   3.137885       3.149935    
   22.19938      4.5046311E-02   3.156925       3.174231    
   21.51682      4.6475261E-02   3.219978       3.198886    
   20.85525      4.7949549E-02   3.233951       3.238907    
   20.21403      4.9470600E-02   3.245692       3.279755    
   19.59251      5.1039908E-02   3.337991       3.305030    
   18.99011      5.2658990E-02   3.361164       3.313394    
   18.40623      5.4329433E-02   3.346354       3.308755    
   17.84030      5.6052871E-02   3.275769       3.293962    
   17.29177      5.7830978E-02   3.222496       3.285042    
   16.76011      5.9665482E-02   3.264025       3.351310    
   16.24479      6.1558187E-02   3.316563       3.427003    
   15.74532      6.3510932E-02   3.431156       3.509877    
   15.26120      6.5525629E-02   3.597853       3.523667    
   14.79198      6.7604221E-02   3.729925       3.600204    
   14.33717      6.9748759E-02   3.719741       3.697319    
   13.89635      7.1961328E-02   3.606405       3.820971    
   13.46909      7.4244082E-02   3.799783       3.936161    
   13.05496      7.6599240E-02   3.996368       4.040114    
   12.65356      7.9029121E-02   4.296719       4.160698    
   12.26451      8.1536077E-02   4.404182       4.335777    
   11.88742      8.4122561E-02   4.457602       4.569388    
   11.52192      8.6791091E-02   4.396569       4.853419    
   11.16766      8.9544266E-02   4.327956       5.075964    
   10.82429      9.2384785E-02   5.007039       5.415801    
   10.49148      9.5315412E-02   5.668670       5.821950    
   10.16891      9.8338999E-02   6.268622       6.404565    
   9.856246      0.1014585       6.856324       6.767373    
   9.553200      0.1046770       7.355249       7.131644    
   9.259472      0.1079975       8.059520       7.587111    
   8.974774      0.1114234       8.179129       8.166478    
   8.698831      0.1149580       7.926568       8.627053    
   8.431372      0.1186047       8.024652       8.832171    
   8.172135      0.1223670       7.970664       8.923409    
   7.920870      0.1262487       9.561716       8.953514    
   7.677330      0.1302536       11.46233       8.895959    
   7.441278      0.1343855       11.52033       8.654253    
   7.212485      0.1386485       10.33955       8.549905    
   6.990726      0.1430467       8.730041       8.484286    
   6.775784      0.1475844       7.951162       8.454599    
   6.567452      0.1522661       7.716513       8.658338    
   6.365525      0.1570962       7.368855       8.846148    
   6.169807      0.1620796       7.241980       8.954096    
   5.980107      0.1672211       6.690945       9.641783    
   5.796239      0.1725257       7.193363       9.758555    
   5.618024      0.1779985       7.007918       9.966108    
   5.445289      0.1836450       7.545480       10.32661    
   5.277865      0.1894706       8.518143       10.43791    
   5.115589      0.1954809       11.02673       10.63307    
   4.958302      0.2016820       12.37889       10.72153    
   4.805851      0.2080797       13.08151       10.75750    
   4.658087      0.2146804       14.50856       10.52181    
   4.514867      0.2214905       15.09035       10.27143    
   4.376050      0.2285166       13.50547       9.900612    
   4.241501      0.2357656       13.86795       9.754453    
   4.111090      0.2432445       13.11269       9.383939    
   3.984688      0.2509607       12.07255       8.944610    
   3.862172      0.2589217       12.44134       8.799081    
   3.743424      0.2671351       11.63671       8.446018    
   3.628326      0.2756092       10.65536       8.165101    
   3.516768      0.2843520       9.485742       7.930369    
   3.408639      0.2933722       8.088294       7.561805    
   3.303835      0.3026786       7.044212       7.244138    
   3.202253      0.3122801       6.005758       7.129592    
   3.103795      0.3221862       5.013501       6.744131    
   3.008364      0.3324066       4.316989       6.333922    
   2.915867      0.3429512       4.116560       6.132876    
   2.826214      0.3538303       3.831698       5.711874    
   2.739317      0.3650545       3.977578       5.273204    
   2.655093      0.3766347       3.892467       5.068313    
   2.573457      0.3885823       3.788594       4.675069    
   2.494333      0.4009089       3.556705       4.410141    
   2.417640      0.4136265       3.761729       3.995337    
   2.343306      0.4267475       3.948703       3.669199    
   2.271257      0.4402848       3.835846       3.476422    
   2.201424      0.4542515       4.312175       3.139801    
   2.133738      0.4686611       4.433260       2.982457    
   2.068133      0.4835280       4.219516       2.660712    
   2.004544      0.4988664       4.657195       2.387201    
   1.942912      0.5146915       4.595111       2.248975    
   1.883174      0.5310184       5.146295       2.039182    
   1.825273      0.5478634       5.649348       1.880745    
   1.769152      0.5652427       5.580848       1.678661    
   1.714756      0.5831733       5.127443       1.546927    
   1.662033      0.6016726       4.512264       1.355689    
   1.610931      0.6207589       4.020198       1.204696    
   1.561401      0.6404505       3.937576       1.126435    
   1.513393      0.6607669       3.539582       1.126435    
   1.466861      0.6817277       2.859159       1.097164    
   1.421760      0.7033534       2.369989       1.097164    
   1.378046      0.7256652       1.987193       1.069207    
   1.335676      0.7486846       1.653077       1.069207    
   1.294608      0.7724344       1.350520       1.043389    
   1.254804      0.7969375       1.121175       1.043389    
   1.216223      0.8222179       1.130810       1.015708    
   1.178828      0.8483002       1.015035       1.015708    
   1.142583      0.8752099      0.8760362      0.9883105    
   1.107453      0.9029732      0.7887582      0.9883105    
   1.073402      0.9316174      0.7508959      0.9613847    
   1.040399      0.9611701      0.7085458      0.9613847    
   1.008410      0.9916603      0.6440187      0.9613847    
  0.9774047       1.023118      0.5483658      0.9361874    
  0.9473529       1.055573      0.4381622      0.9361874    
  0.9182250       1.089058      0.4104845      0.9361874    
  0.8899927       1.123605      0.4004356      0.9084861    
  0.8626285       1.159248      0.3816496      0.9084861    
  0.8361056       1.196021      0.4069625      0.8783849    
  0.8103982       1.233961      0.4073603      0.8783849    
  0.7854812       1.273105      0.3616396      0.8783849    
  0.7613303       1.313490      0.2956749      0.8488104    
  0.7379220       1.355157      0.2430350      0.8488104    
  0.7152334       1.398145      0.2099227      0.8488104    
  0.6932424       1.442497      0.2046076      0.8138269    
  0.6719276       1.488256      0.2040906      0.8138269    
  0.6512681       1.535466      0.1994802      0.8138269    
  0.6312438       1.584174      0.1819834      0.7768939    
  0.6118352       1.634427      0.1584105      0.7768939    
  0.5930234       1.686274      0.1451169      0.7768939    
  0.5747899       1.739766      0.1342584      0.7768939    
  0.5571171       1.794955      0.1330270      0.7414030    
  0.5399877       1.851894      0.1313858      0.7414030    
  0.5233849       1.910640      0.1263508      0.7414030    
  0.5072926       1.971249      0.1194315      0.7414030    
  0.4916950       2.033781      0.1114426      0.7006135    
  0.4765771       2.098296      0.1060848      0.7006135    
  0.4619240       2.164858      0.1048956      0.7006135    
  0.4477214       2.233532      0.1034715      0.7006135    
  0.4339555       2.304384      0.1012343      0.6596188    
  0.4206128       2.377483      9.5331848E-02  0.6596188    
  0.4076804       2.452902      8.6307429E-02  0.6596188    
  0.3951457       2.530712      7.6639071E-02  0.6596188    
  0.3829963       2.610991      6.7778535E-02  0.6118882    
  0.3712204       2.693817      6.1410528E-02  0.6118882    
  0.3598067       2.779270      5.7168260E-02  0.6118882    
  0.3487439       2.867434      5.6604292E-02  0.6118882    
  0.3380212       2.958395      5.5744328E-02  0.6118882    
  0.3276282       3.052241      5.3612307E-02  0.6118882    
  0.3175547       3.149064      4.9063455E-02  0.5577220    
  0.3077910       3.248958      4.8697367E-02  0.5577220    
  0.2983274       3.352021      4.6712480E-02  0.5577220    
  0.2891549       3.458354      4.4652060E-02  0.5577220    
  0.2802644       3.568060      4.4809807E-02  0.5577220    
  0.2716472       3.681245      4.7259565E-02  0.5577220    
  0.2632950       3.798022      5.0051134E-02  0.5031227    
  0.2551996       3.918502      5.0351318E-02  0.5031227    
  0.2473530       4.042805      4.7169264E-02  0.5031227    
  0.2397478       4.171050      4.1436695E-02  0.5031227    
  0.2323764       4.303364      3.6118969E-02  0.5031227    
  0.2252316       4.439875      3.3368252E-02  0.5031227    
  0.2183065       4.580716      3.1280931E-02  0.5031227    
  0.2115943       4.726026      2.9906118E-02  0.4523061    
  0.2050885       4.875944      2.8578075E-02  0.4523061    
  0.1987827       5.030619      2.6666198E-02  0.4523061    
  0.1926708       5.190199      2.3832621E-02  0.4523061    
  0.1867469       5.354843      2.2515032E-02  0.4523061    
  0.1810050       5.524709      2.2590240E-02  0.4523061    
  0.1754397       5.699963      2.1742307E-02  0.4523061    
  0.1700456       5.880777      1.9971376E-02  0.4523061    
  0.1648172       6.067327      1.7720198E-02  0.4523061    
  0.1597497       6.259794      1.5548155E-02  0.4071954    
  0.1548379       6.458367      1.3699505E-02  0.4071954    
  0.1500772       6.663239      1.2167740E-02  0.4071954    
  0.1454628       6.874609      1.0948248E-02  0.4071954    
  0.1409903       7.092686      9.9394219E-03  0.4071954    
  0.1366553       7.317679      9.0386942E-03  0.4071954    
  0.1324537       7.549810      8.2503585E-03  0.4071954    
  0.1283812       7.789305      7.5332858E-03  0.4071954    
  0.1244339       8.036396      6.8434728E-03  0.4071954    
  0.1206080       8.291327      6.4114360E-03  0.4071954    
  0.1168997       8.554343      6.0222866E-03  0.4071954    
  0.1133054       8.825704      5.6277034E-03  0.4071954    
  0.1098217       9.105672      5.2492218E-03  0.3665999    
  0.1064450       9.394522      4.9002324E-03  0.3665999    
  0.1031722       9.692533      4.5669125E-03  0.3665999    
  0.1000000       10.00000      4.2161015E-03  0.3665999    
