 Calculated PSA for the frequency range: 
 Station:   TYNO
 Component: HHE
  0.1000000      Hz and    50.00000      Hz
         200 frequencies distributed logarithmically
 Oscillator damping is   5.000000     % of critical
  Freq.(Hz)       Period(s)      PSA(cm/s^2)  Smooth PSA(cm/s^2)
   50.00000      1.9999998E-02   2.481717       2.481717    
   48.46267      2.0634437E-02   2.485034       2.486678    
   46.97261      2.1289000E-02   2.488322       2.488194    
   45.52837      2.1964328E-02   2.491225       2.491121    
   44.12852      2.2661081E-02   2.493815       2.494273    
   42.77172      2.3379933E-02   2.497778       2.497938    
   41.45663      2.4121592E-02   2.502221       2.502772    
   40.18199      2.4886772E-02   2.508317       2.511900    
   38.94653      2.5676232E-02   2.525162       2.530973    
   37.74905      2.6490729E-02   2.559441       2.556050    
   36.58840      2.7331069E-02   2.583548       2.575104    
   35.46343      2.8198060E-02   2.582324       2.581156    
   34.37305      2.9092560E-02   2.577598       2.579121    
   33.31620      3.0015431E-02   2.577440       2.568125    
   32.29184      3.0967580E-02   2.549337       2.541702    
   31.29897      3.1949930E-02   2.498329       2.527137    
   30.33664      3.2963444E-02   2.533745       2.551239    
   29.40389      3.4009106E-02   2.621642       2.622141    
   28.49982      3.5087943E-02   2.711036       2.701786    
   27.62355      3.6201000E-02   2.772680       2.763131    
   26.77422      3.7349366E-02   2.805676       2.795010    
   25.95100      3.8534161E-02   2.806675       2.792271    
   25.15310      3.9756540E-02   2.764462       2.761379    
   24.37972      4.1017693E-02   2.713001       2.705822    
   23.63013      4.2318851E-02   2.681172       2.678839    
   22.90358      4.3661289E-02   2.664656       2.671940    
   22.19938      4.5046311E-02   2.656529       2.658877    
   21.51682      4.6475261E-02   2.644342       2.657050    
   20.85525      4.7949549E-02   2.647686       2.662917    
   20.21403      4.9470600E-02   2.672037       2.680220    
   19.59251      5.1039908E-02   2.693989       2.710046    
   18.99011      5.2658990E-02   2.743046       2.739146    
   18.40623      5.4329433E-02   2.793473       2.766915    
   17.84030      5.6052871E-02   2.793183       2.779142    
   17.29177      5.7830978E-02   2.810883       2.769339    
   16.76011      5.9665482E-02   2.755124       2.741335    
   16.24479      6.1558187E-02   2.694031       2.733433    
   15.74532      6.3510932E-02   2.683546       2.725042    
   15.26120      6.5525629E-02   2.711242       2.735490    
   14.79198      6.7604221E-02   2.745770       2.751445    
   14.33717      6.9748759E-02   2.760542       2.787646    
   13.89635      7.1961328E-02   2.798176       2.835653    
   13.46909      7.4244082E-02   2.866807       2.884022    
   13.05496      7.6599240E-02   2.947438       2.938818    
   12.65356      7.9029121E-02   3.019593       3.083602    
   12.26451      8.1536077E-02   3.049830       3.220539    
   11.88742      8.4122561E-02   3.129342       3.397706    
   11.52192      8.6791091E-02   3.316933       3.602948    
   11.16766      8.9544266E-02   3.540703       3.702491    
   10.82429      9.2384785E-02   3.893670       3.850230    
   10.49148      9.5315412E-02   4.284142       3.960016    
   10.16891      9.8338999E-02   4.589370       4.054929    
   9.856246      0.1014585       4.498840       4.121045    
   9.553200      0.1046770       4.349240       4.184695    
   9.259472      0.1079975       4.037909       4.223918    
   8.974774      0.1114234       4.077564       4.236158    
   8.698831      0.1149580       3.960924       4.250148    
   8.431372      0.1186047       3.978093       4.227448    
   8.172135      0.1223670       4.177198       4.244607    
   7.920870      0.1262487       4.285903       4.318193    
   7.677330      0.1302536       4.406539       4.446743    
   7.441278      0.1343855       4.372184       4.720864    
   7.212485      0.1386485       4.268015       4.853957    
   6.990726      0.1430467       4.316975       5.079848    
   6.775784      0.1475844       4.704745       5.536672    
   6.567452      0.1522661       5.232266       5.903766    
   6.365525      0.1570962       5.580509       6.402303    
   6.169807      0.1620796       5.886607       6.971147    
   5.980107      0.1672211       6.201267       7.840128    
   5.796239      0.1725257       6.584162       8.481330    
   5.618024      0.1779985       7.123405       9.155680    
   5.445289      0.1836450       7.806538       10.06875    
   5.277865      0.1894706       8.103757       10.09061    
   5.115589      0.1954809       9.683607       10.20725    
   4.958302      0.2016820       11.76397       10.36450    
   4.805851      0.2080797       12.93920       10.47394    
   4.658087      0.2146804       13.88290       10.29770    
   4.514867      0.2214905       14.83208       10.04166    
   4.376050      0.2285166       15.27261       9.653380    
   4.241501      0.2357656       15.73196       9.517840    
   4.111090      0.2432445       16.44547       9.065156    
   3.984688      0.2509607       13.46251       8.519629    
   3.862172      0.2589217       10.48408       8.277484    
   3.743424      0.2671351       8.749838       7.772568    
   3.628326      0.2756092       8.378234       7.317183    
   3.516768      0.2843520       8.377374       7.021750    
   3.408639      0.2933722       7.769162       6.467377    
   3.303835      0.3026786       6.811618       5.898777    
   3.202253      0.3122801       5.847938       5.586692    
   3.103795      0.3221862       4.664823       5.055482    
   3.008364      0.3324066       3.898973       4.524005    
   2.915867      0.3429512       3.413546       4.312517    
   2.826214      0.3538303       3.466734       3.824864    
   2.739317      0.3650545       3.169241       3.350760    
   2.655093      0.3766347       2.607585       3.210810    
   2.573457      0.3885823       2.148613       2.764248    
   2.494333      0.4009089       1.798015       2.610444    
   2.417640      0.4136265       1.510729       2.236102    
   2.343306      0.4267475       1.406419       1.983041    
   2.271257      0.4402848       1.342075       1.878483    
   2.201424      0.4542515       1.211962       1.650408    
   2.133738      0.4686611       1.126991       1.568434    
   2.068133      0.4835280       1.116089       1.354836    
   2.004544      0.4988664       1.103370       1.159911    
   1.942912      0.5146915       1.051149       1.093759    
   1.883174      0.5310184      0.9451268      0.9366777    
   1.825273      0.5478634      0.8348544      0.8648767    
   1.769152      0.5652427      0.7563100      0.7274059    
   1.714756      0.5831733      0.7424400      0.6703320    
   1.662033      0.6016726      0.7393904      0.5532260    
   1.610931      0.6207589      0.6690633      0.4916877    
   1.561401      0.6404505      0.6324686      0.4359585    
   1.513393      0.6607669      0.6534302      0.4359585    
   1.466861      0.6817277      0.6396908      0.4041877    
   1.421760      0.7033534      0.5832565      0.4041877    
   1.378046      0.7256652      0.5342779      0.3763233    
   1.335676      0.7486846      0.5200006      0.3763233    
   1.294608      0.7724344      0.5414257      0.3474409    
   1.254804      0.7969375      0.5253701      0.3474409    
   1.216223      0.8222179      0.4909525      0.3208202    
   1.178828      0.8483002      0.4726250      0.3208202    
   1.142583      0.8752099      0.4353189      0.2990414    
   1.107453      0.9029732      0.4653433      0.2990414    
   1.073402      0.9316174      0.4589168      0.2812571    
   1.040399      0.9611701      0.4641572      0.2812571    
   1.008410      0.9916603      0.4484820      0.2812571    
  0.9774047       1.023118      0.3846998      0.2665313    
  0.9473529       1.055573      0.3693797      0.2665313    
  0.9182250       1.089058      0.3352461      0.2665313    
  0.8899927       1.123605      0.3009455      0.2543333    
  0.8626285       1.159248      0.2723313      0.2543333    
  0.8361056       1.196021      0.2356257      0.2429264    
  0.8103982       1.233961      0.2041338      0.2429264    
  0.7854812       1.273105      0.1768868      0.2429264    
  0.7613303       1.313490      0.1461690      0.2319350    
  0.7379220       1.355157      0.1344407      0.2319350    
  0.7152334       1.398145      0.1382381      0.2319350    
  0.6932424       1.442497      0.1237900      0.2220357    
  0.6719276       1.488256      0.1176986      0.2220357    
  0.6512681       1.535466      0.1191574      0.2220357    
  0.6312438       1.584174      0.1235881      0.2128015    
  0.6118352       1.634427      0.1264514      0.2128015    
  0.5930234       1.686274      0.1211727      0.2128015    
  0.5747899       1.739766      0.1100624      0.2128015    
  0.5571171       1.794955      0.1024320      0.2034892    
  0.5399877       1.851894      9.2655942E-02  0.2034892    
  0.5233849       1.910640      8.2782373E-02  0.2034892    
  0.5072926       1.971249      7.8628428E-02  0.2034892    
  0.4916950       2.033781      7.3848911E-02  0.1941155    
  0.4765771       2.098296      7.1673065E-02  0.1941155    
  0.4619240       2.164858      6.8766437E-02  0.1941155    
  0.4477214       2.233532      5.9344646E-02  0.1941155    
  0.4339555       2.304384      5.2328337E-02  0.1850940    
  0.4206128       2.377483      5.2438654E-02  0.1850940    
  0.4076804       2.452902      5.4522727E-02  0.1850940    
  0.3951457       2.530712      5.2546911E-02  0.1850940    
  0.3829963       2.610991      5.0176106E-02  0.1770086    
  0.3712204       2.693817      4.4216257E-02  0.1770086    
  0.3598067       2.779270      4.1650914E-02  0.1770086    
  0.3487439       2.867434      3.7813962E-02  0.1770086    
  0.3380212       2.958395      3.3201441E-02  0.1770086    
  0.3276282       3.052241      2.7936177E-02  0.1770086    
  0.3175547       3.149064      2.4853379E-02  0.1699350    
  0.3077910       3.248958      2.4245046E-02  0.1699350    
  0.2983274       3.352021      2.2971762E-02  0.1699350    
  0.2891549       3.458354      2.1745453E-02  0.1699350    
  0.2802644       3.568060      2.2601072E-02  0.1699350    
  0.2716472       3.681245      2.1919882E-02  0.1699350    
  0.2632950       3.798022      2.0696117E-02  0.1635613    
  0.2551996       3.918502      1.9613683E-02  0.1635613    
  0.2473530       4.042805      1.8702693E-02  0.1635613    
  0.2397478       4.171050      1.7983209E-02  0.1635613    
  0.2323764       4.303364      1.7301172E-02  0.1635613    
  0.2252316       4.439875      1.6466429E-02  0.1635613    
  0.2183065       4.580716      1.5646402E-02  0.1635613    
  0.2115943       4.726026      1.3795837E-02  0.1572000    
  0.2050885       4.875944      1.1933207E-02  0.1572000    
  0.1987827       5.030619      1.0536928E-02  0.1572000    
  0.1926708       5.190199      9.6413838E-03  0.1572000    
  0.1867469       5.354843      9.0912431E-03  0.1572000    
  0.1810050       5.524709      8.6185606E-03  0.1572000    
  0.1754397       5.699963      7.9765767E-03  0.1572000    
  0.1700456       5.880777      7.1928864E-03  0.1572000    
  0.1648172       6.067327      6.7365821E-03  0.1572000    
  0.1597497       6.259794      6.1858254E-03  0.1507312    
  0.1548379       6.458367      5.7663135E-03  0.1507312    
  0.1500772       6.663239      5.4429937E-03  0.1507312    
  0.1454628       6.874609      5.1249745E-03  0.1507312    
  0.1409903       7.092686      5.0125779E-03  0.1507312    
  0.1366553       7.317679      4.8198458E-03  0.1507312    
  0.1324537       7.549810      4.5058536E-03  0.1507312    
  0.1283812       7.789305      4.1365987E-03  0.1507312    
  0.1244339       8.036396      3.7559350E-03  0.1507312    
  0.1206080       8.291327      3.3988298E-03  0.1507312    
  0.1168997       8.554343      3.0682418E-03  0.1507312    
  0.1133054       8.825704      2.8908011E-03  0.1507312    
  0.1098217       9.105672      2.7090127E-03  0.1449073    
  0.1064450       9.394522      2.5158569E-03  0.1449073    
  0.1031722       9.692533      2.3193310E-03  0.1449073    
  0.1000000       10.00000      2.1301515E-03  0.1449073    
