 Calculated PSA for the frequency range: 
 Station:   A16 
 Component: HHZ
  0.1000000      Hz and    50.00000      Hz
         200 frequencies distributed logarithmically
 Oscillator damping is   5.000000     % of critical
  Freq.(Hz)       Period(s)      PSA(cm/s^2)  Smooth PSA(cm/s^2)
   50.00000      1.9999998E-02  0.2036844      0.2036844    
   48.46267      2.0634437E-02  0.2042698      0.2046041    
   46.97261      2.1289000E-02  0.2049384      0.2050158    
   45.52837      2.1964328E-02  0.2058392      0.2070733    
   44.12852      2.2661081E-02  0.2104423      0.2121094    
   42.77172      2.3379933E-02  0.2200467      0.2205236    
   41.45663      2.4121592E-02  0.2310818      0.2306870    
   40.18199      2.4886772E-02  0.2409324      0.2392401    
   38.94653      2.5676232E-02  0.2457061      0.2445089    
   37.74905      2.6490729E-02  0.2468881      0.2417593    
   36.58840      2.7331069E-02  0.2326836      0.2386945    
   35.46343      2.8198060E-02  0.2365117      0.2315782    
   34.37305      2.9092560E-02  0.2255393      0.2312240    
   33.31620      3.0015431E-02  0.2316209      0.2273296    
   32.29184      3.0967580E-02  0.2248286      0.2244014    
   31.29897      3.1949930E-02  0.2167547      0.2202067    
   30.33664      3.2963444E-02  0.2190370      0.2188689    
   29.40389      3.4009106E-02  0.2208150      0.2190755    
   28.49982      3.5087943E-02  0.2173747      0.2188033    
   27.62355      3.6201000E-02  0.2182203      0.2176946    
   26.77422      3.7349366E-02  0.2174887      0.2199142    
   25.95100      3.8534161E-02  0.2240336      0.2237064    
   25.15310      3.9756540E-02  0.2295970      0.2287323    
   24.37972      4.1017693E-02  0.2325664      0.2331795    
   23.63013      4.2318851E-02  0.2321406      0.2370158    
   22.90358      4.3661289E-02  0.2384141      0.2415024    
   22.19938      4.5046311E-02  0.2449422      0.2495543    
   21.51682      4.6475261E-02  0.2594487      0.2608015    
   20.85525      4.7949549E-02  0.2728260      0.2708066    
   20.21403      4.9470600E-02  0.2883766      0.2767386    
   19.59251      5.1039908E-02  0.2884396      0.2775156    
   18.99011      5.2658990E-02  0.2746019      0.2744947    
   18.40623      5.4329433E-02  0.2633338      0.2696020    
   17.84030      5.6052871E-02  0.2577219      0.2688866    
   17.29177      5.7830978E-02  0.2639128      0.2725050    
   16.76011      5.9665482E-02  0.2848628      0.2690227    
   16.24479      6.1558187E-02  0.2926937      0.2680918    
   15.74532      6.3510932E-02  0.2722524      0.2679784    
   15.26120      6.5525629E-02  0.2426926      0.2704435    
   14.79198      6.7604221E-02  0.2521364      0.2718442    
   14.33717      6.9748759E-02  0.2632327      0.2738467    
   13.89635      7.1961328E-02  0.2852340      0.2770298    
   13.46909      7.4244082E-02  0.2946676      0.2849233    
   13.05496      7.6599240E-02  0.3067112      0.2981190    
   12.65356      7.9029121E-02  0.2945343      0.3136631    
   12.26451      8.1536077E-02  0.2979466      0.3271372    
   11.88742      8.4122561E-02  0.3445068      0.3472845    
   11.52192      8.6791091E-02  0.3478997      0.3653481    
   11.16766      8.9544266E-02  0.3378045      0.3721296    
   10.82429      9.2384785E-02  0.3930269      0.3838466    
   10.49148      9.5315412E-02  0.4558463      0.3950903    
   10.16891      9.8338999E-02  0.4512198      0.4100524    
   9.856246      0.1014585      0.4263816      0.4239439    
   9.553200      0.1046770      0.3999868      0.4368129    
   9.259472      0.1079975      0.3991403      0.4409234    
   8.974774      0.1114234      0.4331931      0.4441978    
   8.698831      0.1149580      0.4560251      0.4541590    
   8.431372      0.1186047      0.4868146      0.4592840    
   8.172135      0.1223670      0.4664947      0.4644400    
   7.920870      0.1262487      0.4341318      0.4722578    
   7.677330      0.1302536      0.4885901      0.4779758    
   7.441278      0.1343855      0.5181000      0.4832486    
   7.212485      0.1386485      0.4898302      0.4854923    
   6.990726      0.1430467      0.5127199      0.4929920    
   6.775784      0.1475844      0.4882539      0.5128821    
   6.567452      0.1522661      0.4937998      0.5322999    
   6.365525      0.1570962      0.4677564      0.5562006    
   6.169807      0.1620796      0.4684152      0.5740009    
   5.980107      0.1672211      0.5113000      0.5978075    
   5.796239      0.1725257      0.5146615      0.6113517    
   5.618024      0.1779985      0.5610211      0.6210346    
   5.445289      0.1836450      0.6114439      0.6355179    
   5.277865      0.1894706      0.6667136      0.6386933    
   5.115589      0.1954809      0.7577620      0.6474410    
   4.958302      0.2016820      0.7926418      0.6538942    
   4.805851      0.2080797      0.7555938      0.6634067    
   4.658087      0.2146804      0.7497349      0.6773675    
   4.514867      0.2214905      0.8029796      0.6811699    
   4.376050      0.2285166      0.7483510      0.6944785    
   4.241501      0.2357656      0.6544390      0.6982252    
   4.111090      0.2432445      0.7001319      0.6884268    
   3.984688      0.2509607      0.6943224      0.6668548    
   3.862172      0.2589217      0.6958514      0.6606187    
   3.743424      0.2671351      0.6723477      0.6439722    
   3.628326      0.2756092      0.6295542      0.6242871    
   3.516768      0.2843520      0.6228626      0.6089122    
   3.408639      0.2933722      0.6580067      0.5796376    
   3.303835      0.3026786      0.6896167      0.5512649    
   3.202253      0.3122801      0.7353813      0.5312625    
   3.103795      0.3221862      0.7610210      0.5075346    
   3.008364      0.3324066      0.7789801      0.4854427    
   2.915867      0.3429512      0.7195873      0.4709310    
   2.826214      0.3538303      0.6008346      0.4494774    
   2.739317      0.3650545      0.5339210      0.4329385    
   2.655093      0.3766347      0.4901658      0.4238804    
   2.573457      0.3885823      0.4070699      0.4081384    
   2.494333      0.4009089      0.4089078      0.3966664    
   2.417640      0.4136265      0.4493054      0.3786898    
   2.343306      0.4267475      0.4603546      0.3661422    
   2.271257      0.4402848      0.4175231      0.3572243    
   2.201424      0.4542515      0.3797080      0.3397785    
   2.133738      0.4686611      0.3373684      0.3269297    
   2.068133      0.4835280      0.3118924      0.3061014    
   2.004544      0.4988664      0.2800673      0.2862476    
   1.942912      0.5146915      0.2432486      0.2736175    
   1.883174      0.5310184      0.2288490      0.2558060    
   1.825273      0.5478634      0.2268254      0.2383112    
   1.769152      0.5652427      0.2243453      0.2164307    
   1.714756      0.5831733      0.2181095      0.2004055    
   1.662033      0.6016726      0.2195692      0.1769721    
   1.610931      0.6207589      0.2546759      0.1579470    
   1.561401      0.6404505      0.2723857      0.1468513    
   1.513393      0.6607669      0.2649139      0.1468513    
   1.466861      0.6817277      0.2298725      0.1410519    
   1.421760      0.7033534      0.2040801      0.1410519    
   1.378046      0.7256652      0.1944572      0.1356951    
   1.335676      0.7486846      0.2095892      0.1356951    
   1.294608      0.7724344      0.2218463      0.1313480    
   1.254804      0.7969375      0.2370529      0.1313480    
   1.216223      0.8222179      0.2505057      0.1275502    
   1.178828      0.8483002      0.2439864      0.1275502    
   1.142583      0.8752099      0.2330233      0.1240967    
   1.107453      0.9029732      0.2298244      0.1240967    
   1.073402      0.9316174      0.2525831      0.1213758    
   1.040399      0.9611701      0.2438585      0.1213758    
   1.008410      0.9916603      0.2117366      0.1213758    
  0.9774047       1.023118      0.2116188      0.1185842    
  0.9473529       1.055573      0.2147865      0.1185842    
  0.9182250       1.089058      0.2163473      0.1185842    
  0.8899927       1.123605      0.2301558      0.1153418    
  0.8626285       1.159248      0.2421005      0.1153418    
  0.8361056       1.196021      0.2294192      0.1119259    
  0.8103982       1.233961      0.2094186      0.1119259    
  0.7854812       1.273105      0.2047788      0.1119259    
  0.7613303       1.313490      0.1848322      0.1088699    
  0.7379220       1.355157      0.1507165      0.1088699    
  0.7152334       1.398145      0.1266179      0.1088699    
  0.6932424       1.442497      0.1105585      0.1061342    
  0.6719276       1.488256      9.6822470E-02  0.1061342    
  0.6512681       1.535466      9.2421249E-02  0.1061342    
  0.6312438       1.584174      0.1054876      0.1037746    
  0.6118352       1.634427      0.1096644      0.1037746    
  0.5930234       1.686274      9.1506198E-02  0.1037746    
  0.5747899       1.739766      7.4818350E-02  0.1037746    
  0.5571171       1.794955      7.1051523E-02  0.1016291    
  0.5399877       1.851894      7.6030374E-02  0.1016291    
  0.5233849       1.910640      7.9504609E-02  0.1016291    
  0.5072926       1.971249      8.3643556E-02  0.1016291    
  0.4916950       2.033781      8.4285647E-02  9.9770360E-02
  0.4765771       2.098296      8.1617691E-02  9.9770360E-02
  0.4619240       2.164858      7.7032939E-02  9.9770360E-02
  0.4477214       2.233532      6.8467401E-02  9.9770360E-02
  0.4339555       2.304384      6.8989508E-02  9.8260060E-02
  0.4206128       2.377483      6.6062272E-02  9.8260060E-02
  0.4076804       2.452902      6.0833219E-02  9.8260060E-02
  0.3951457       2.530712      5.3978972E-02  9.8260060E-02
  0.3829963       2.610991      4.9190208E-02  9.6870810E-02
  0.3712204       2.693817      4.3187644E-02  9.6870810E-02
  0.3598067       2.779270      4.0371757E-02  9.6870810E-02
  0.3487439       2.867434      3.6011197E-02  9.6870810E-02
  0.3380212       2.958395      2.8683666E-02  9.6870810E-02
  0.3276282       3.052241      2.5283327E-02  9.6870810E-02
  0.3175547       3.149064      2.4201561E-02  9.5473446E-02
  0.3077910       3.248958      2.2595832E-02  9.5473446E-02
  0.2983274       3.352021      2.2409985E-02  9.5473446E-02
  0.2891549       3.458354      2.1919234E-02  9.5473446E-02
  0.2802644       3.568060      2.0803073E-02  9.5473446E-02
  0.2716472       3.681245      1.8798081E-02  9.5473446E-02
  0.2632950       3.798022      1.6150508E-02  9.4072662E-02
  0.2551996       3.918502      1.6583430E-02  9.4072662E-02
  0.2473530       4.042805      1.6457364E-02  9.4072662E-02
  0.2397478       4.171050      1.6438168E-02  9.4072662E-02
  0.2323764       4.303364      1.8627893E-02  9.4072662E-02
  0.2252316       4.439875      1.8800803E-02  9.4072662E-02
  0.2183065       4.580716      1.7765708E-02  9.4072662E-02
  0.2115943       4.726026      1.5982218E-02  9.2709623E-02
  0.2050885       4.875944      1.4007545E-02  9.2709623E-02
  0.1987827       5.030619      1.2494571E-02  9.2709623E-02
  0.1926708       5.190199      1.2416610E-02  9.2709623E-02
  0.1867469       5.354843      1.2254192E-02  9.2709623E-02
  0.1810050       5.524709      1.2539830E-02  9.2709623E-02
  0.1754397       5.699963      1.1902321E-02  9.2709623E-02
  0.1700456       5.880777      1.0860356E-02  9.2709623E-02
  0.1648172       6.067327      1.0001026E-02  9.2709623E-02
  0.1597497       6.259794      9.5621049E-03  9.1300078E-02
  0.1548379       6.458367      9.5471349E-03  9.1300078E-02
  0.1500772       6.663239      9.6657546E-03  9.1300078E-02
  0.1454628       6.874609      9.3070511E-03  9.1300078E-02
  0.1409903       7.092686      8.4466487E-03  9.1300078E-02
  0.1366553       7.317679      7.3814499E-03  9.1300078E-02
  0.1324537       7.549810      6.8966653E-03  9.1300078E-02
  0.1283812       7.789305      6.4929742E-03  9.1300078E-02
  0.1244339       8.036396      6.0118237E-03  9.1300078E-02
  0.1206080       8.291327      5.4395697E-03  9.1300078E-02
  0.1168997       8.554343      4.8615299E-03  9.1300078E-02
  0.1133054       8.825704      4.3632155E-03  9.1300078E-02
  0.1098217       9.105672      3.9830511E-03  8.9464389E-02
  0.1064450       9.394522      3.6962673E-03  8.9464389E-02
  0.1031722       9.692533      3.4506905E-03  8.9464389E-02
  0.1000000       10.00000      3.2023985E-03  8.9464389E-02
