 Calculated PSA for the frequency range: 
 Station:   LMN 
 Component: BHN
  0.1000000      Hz and    50.00000      Hz
         200 frequencies distributed logarithmically
 Oscillator damping is   5.000000     % of critical
  Freq.(Hz)       Period(s)      PSA(cm/s^2)  Smooth PSA(cm/s^2)
   50.00000      1.9999998E-02  5.1006578E-02  5.1006578E-02
   48.46267      2.0634437E-02  5.1183201E-02  5.1215768E-02
   46.97261      2.1289000E-02  5.1248338E-02  5.1227104E-02
   45.52837      2.1964328E-02  5.1249761E-02  5.1292848E-02
   44.12852      2.2661081E-02  5.1380441E-02  5.1265236E-02
   42.77172      2.3379933E-02  5.1165503E-02  5.1185563E-02
   41.45663      2.4121592E-02  5.1010743E-02  5.1049814E-02
   40.18199      2.4886772E-02  5.0973192E-02  5.0976053E-02
   38.94653      2.5676232E-02  5.0944228E-02  5.0916508E-02
   37.74905      2.6490729E-02  5.0832100E-02  5.0744411E-02
   36.58840      2.7331069E-02  5.0456908E-02  5.0574154E-02
   35.46343      2.8198060E-02  5.0433442E-02  5.0553367E-02
   34.37305      2.9092560E-02  5.0769754E-02  5.0596934E-02
   33.31620      3.0015431E-02  5.0587606E-02  5.0622325E-02
   32.29184      3.0967580E-02  5.0509602E-02  5.0626811E-02
   31.29897      3.1949930E-02  5.0783224E-02  5.0797764E-02
   30.33664      3.2963444E-02  5.1100470E-02  5.1042389E-02
   29.40389      3.4009106E-02  5.1243480E-02  5.1273882E-02
   28.49982      3.5087943E-02  5.1477686E-02  5.1492680E-02
   27.62355      3.6201000E-02  5.1756877E-02  5.1667377E-02
   26.77422      3.7349366E-02  5.1767573E-02  5.1754851E-02
   25.95100      3.8534161E-02  5.1740110E-02  5.1874656E-02
   25.15310      3.9756540E-02  5.2116282E-02  5.2008901E-02
   24.37972      4.1017693E-02  5.2170314E-02  5.1722899E-02
   23.63013      4.2318851E-02  5.1556759E-02  5.1364139E-02
   22.90358      4.3661289E-02  5.1048242E-02  5.1319521E-02
   22.19938      4.5046311E-02  5.0681237E-02  5.1116902E-02
   21.51682      4.6475261E-02  5.1141050E-02  5.0990522E-02
   20.85525      4.7949549E-02  5.1157203E-02  5.0983965E-02
   20.21403      4.9470600E-02  5.0924867E-02  5.1119275E-02
   19.59251      5.1039908E-02  5.1015466E-02  5.1142912E-02
   18.99011      5.2658990E-02  5.1357768E-02  5.1209282E-02
   18.40623      5.4329433E-02  5.1259264E-02  5.1335931E-02
   17.84030      5.6052871E-02  5.1489040E-02  5.1714413E-02
   17.29177      5.7830978E-02  5.1558100E-02  5.2239399E-02
   16.76011      5.9665482E-02  5.2907899E-02  5.2989256E-02
   16.24479      6.1558187E-02  5.3982697E-02  5.3157147E-02
   15.74532      6.3510932E-02  5.4337319E-02  5.3178597E-02
   15.26120      6.5525629E-02  5.3660467E-02  5.3008933E-02
   14.79198      6.7604221E-02  5.2496359E-02  5.3058196E-02
   14.33717      6.9748759E-02  5.1686849E-02  5.2967649E-02
   13.89635      7.1961328E-02  5.1990926E-02  5.2872818E-02
   13.46909      7.4244082E-02  5.3252719E-02  5.2963946E-02
   13.05496      7.6599240E-02  5.3348944E-02  5.3035785E-02
   12.65356      7.9029121E-02  5.3673502E-02  5.3407658E-02
   12.26451      8.1536077E-02  5.4298326E-02  5.4209914E-02
   11.88742      8.4122561E-02  5.2999210E-02  5.5366844E-02
   11.52192      8.6791091E-02  5.3405508E-02  5.6631640E-02
   11.16766      8.9544266E-02  5.4292101E-02  5.7176337E-02
   10.82429      9.2384785E-02  5.8408991E-02  5.8084395E-02
   10.49148      9.5315412E-02  6.2508143E-02  5.9334848E-02
   10.16891      9.8338999E-02  6.3467309E-02  6.2933855E-02
   9.856246      0.1014585      6.1533935E-02  6.6006809E-02
   9.553200      0.1046770      6.1846018E-02  6.8669610E-02
   9.259472      0.1079975      6.5552436E-02  7.0926845E-02
   8.974774      0.1114234      6.9401927E-02  7.3267363E-02
   8.698831      0.1149580      7.8922197E-02  7.4115865E-02
   8.431372      0.1186047      8.4135063E-02  7.5745769E-02
   8.172135      0.1223670      8.0920048E-02  7.7787988E-02
   7.920870      0.1262487      8.0981322E-02  7.9755656E-02
   7.677330      0.1302536      8.5913405E-02  8.1880353E-02
   7.441278      0.1343855      8.1127286E-02  8.5299999E-02
   7.212485      0.1386485      7.5589515E-02  8.6728469E-02
   6.990726      0.1430467      8.3026156E-02  8.9110300E-02
   6.775784      0.1475844      8.6040504E-02  9.3563400E-02
   6.567452      0.1522661      8.5458033E-02  9.5268250E-02
   6.365525      0.1570962      9.1048807E-02  9.7293735E-02
   6.169807      0.1620796      9.6727595E-02  9.9496059E-02
   5.980107      0.1672211      9.9010043E-02  0.1016439    
   5.796239      0.1725257      0.1052986      0.1049921    
   5.618024      0.1779985      0.1122677      0.1095243    
   5.445289      0.1836450      0.1197819      0.1163535    
   5.277865      0.1894706      0.1202599      0.1189119    
   5.115589      0.1954809      0.1064929      0.1261599    
   4.958302      0.2016820      0.1113637      0.1305463    
   4.805851      0.2080797      0.1189483      0.1340516    
   4.658087      0.2146804      0.1145982      0.1355348    
   4.514867      0.2214905      0.1209080      0.1357002    
   4.376050      0.2285166      0.1380461      0.1391597    
   4.241501      0.2357656      0.1526375      0.1420076    
   4.111090      0.2432445      0.1547151      0.1448043    
   3.984688      0.2509607      0.1607605      0.1441271    
   3.862172      0.2589217      0.1649621      0.1445864    
   3.743424      0.2671351      0.1735336      0.1446167    
   3.628326      0.2756092      0.1763800      0.1434828    
   3.516768      0.2843520      0.1731861      0.1438992    
   3.408639      0.2933722      0.1611538      0.1437321    
   3.303835      0.3026786      0.1380305      0.1445142    
   3.202253      0.3122801      0.1238966      0.1446537    
   3.103795      0.3221862      0.1391741      0.1470200    
   3.008364      0.3324066      0.1500830      0.1513496    
   2.915867      0.3429512      0.1641938      0.1533784    
   2.826214      0.3538303      0.1708020      0.1542816    
   2.739317      0.3650545      0.1677721      0.1558132    
   2.655093      0.3766347      0.1536239      0.1572910    
   2.573457      0.3885823      0.1428987      0.1592324    
   2.494333      0.4009089      0.1291015      0.1607233    
   2.417640      0.4136265      0.1317232      0.1586601    
   2.343306      0.4267475      0.1287319      0.1570387    
   2.271257      0.4402848      0.1369330      0.1543377    
   2.201424      0.4542515      0.1337552      0.1502338    
   2.133738      0.4686611      0.1225957      0.1466351    
   2.068133      0.4835280      0.1185680      0.1406650    
   2.004544      0.4988664      0.1180245      0.1340398    
   1.942912      0.5146915      0.1322242      0.1279283    
   1.883174      0.5310184      0.1424191      0.1217032    
   1.825273      0.5478634      0.1445070      0.1135006    
   1.769152      0.5652427      0.1421530      0.1058993    
   1.714756      0.5831733      0.1514795      9.8598294E-02
   1.662033      0.6016726      0.1621757      8.9867726E-02
   1.610931      0.6207589      0.1775322      8.0215141E-02
   1.561401      0.6404505      0.2008895      7.6819547E-02
   1.513393      0.6607669      0.2185733      7.6819547E-02
   1.466861      0.6817277      0.2085468      7.6147415E-02
   1.421760      0.7033534      0.1692178      7.6147415E-02
   1.378046      0.7256652      0.1577816      7.5332165E-02
   1.335676      0.7486846      0.1679655      7.5332165E-02
   1.294608      0.7724344      0.1809924      7.4439920E-02
   1.254804      0.7969375      0.1856586      7.4439920E-02
   1.216223      0.8222179      0.1847190      7.3559426E-02
   1.178828      0.8483002      0.1874945      7.3559426E-02
   1.142583      0.8752099      0.1938610      7.2796911E-02
   1.107453      0.9029732      0.1996851      7.2796911E-02
   1.073402      0.9316174      0.1971835      7.2122857E-02
   1.040399      0.9611701      0.1852755      7.2122857E-02
   1.008410      0.9916603      0.1623300      7.2122857E-02
  0.9774047       1.023118      0.1372794      7.1569659E-02
  0.9473529       1.055573      0.1235706      7.1569659E-02
  0.9182250       1.089058      0.1243867      7.1569659E-02
  0.8899927       1.123605      0.1266570      7.0979916E-02
  0.8626285       1.159248      0.1191369      7.0979916E-02
  0.8361056       1.196021      0.1214343      7.0408121E-02
  0.8103982       1.233961      0.1173705      7.0408121E-02
  0.7854812       1.273105      9.4559006E-02  7.0408121E-02
  0.7613303       1.313490      8.1978761E-02  6.9742873E-02
  0.7379220       1.355157      8.8535324E-02  6.9742873E-02
  0.7152334       1.398145      9.4188273E-02  6.9742873E-02
  0.6932424       1.442497      8.8750958E-02  6.9096282E-02
  0.6719276       1.488256      8.1707425E-02  6.9096282E-02
  0.6512681       1.535466      7.8719616E-02  6.9096282E-02
  0.6312438       1.584174      7.1524702E-02  6.8550371E-02
  0.6118352       1.634427      6.9685340E-02  6.8550371E-02
  0.5930234       1.686274      6.1837703E-02  6.8550371E-02
  0.5747899       1.739766      6.0999952E-02  6.8550371E-02
  0.5571171       1.794955      5.6669243E-02  6.8034723E-02
  0.5399877       1.851894      4.8879068E-02  6.8034723E-02
  0.5233849       1.910640      4.0934600E-02  6.8034723E-02
  0.5072926       1.971249      3.7935141E-02  6.8034723E-02
  0.4916950       2.033781      3.5706285E-02  6.7513995E-02
  0.4765771       2.098296      3.2972272E-02  6.7513995E-02
  0.4619240       2.164858      3.0207379E-02  6.7513995E-02
  0.4477214       2.233532      3.3914506E-02  6.7513995E-02
  0.4339555       2.304384      3.2311354E-02  6.6832840E-02
  0.4206128       2.377483      3.0626992E-02  6.6832840E-02
  0.4076804       2.452902      2.7956786E-02  6.6832840E-02
  0.3951457       2.530712      2.4510328E-02  6.6832840E-02
  0.3829963       2.610991      2.0117410E-02  6.6028729E-02
  0.3712204       2.693817      1.8181879E-02  6.6028729E-02
  0.3598067       2.779270      1.8133504E-02  6.6028729E-02
  0.3487439       2.867434      1.8663099E-02  6.6028729E-02
  0.3380212       2.958395      2.0171521E-02  6.6028729E-02
  0.3276282       3.052241      1.9762151E-02  6.6028729E-02
  0.3175547       3.149064      1.8235376E-02  6.5184884E-02
  0.3077910       3.248958      1.6380409E-02  6.5184884E-02
  0.2983274       3.352021      1.5712097E-02  6.5184884E-02
  0.2891549       3.458354      1.5161082E-02  6.5184884E-02
  0.2802644       3.568060      1.5257109E-02  6.5184884E-02
  0.2716472       3.681245      1.6677938E-02  6.5184884E-02
  0.2632950       3.798022      1.7464967E-02  6.4348273E-02
  0.2551996       3.918502      1.7919417E-02  6.4348273E-02
  0.2473530       4.042805      1.7600866E-02  6.4348273E-02
  0.2397478       4.171050      1.5875792E-02  6.4348273E-02
  0.2323764       4.303364      1.3516355E-02  6.4348273E-02
  0.2252316       4.439875      1.2056278E-02  6.4348273E-02
  0.2183065       4.580716      1.1676094E-02  6.4348273E-02
  0.2115943       4.726026      1.1323650E-02  6.3390791E-02
  0.2050885       4.875944      1.1017355E-02  6.3390791E-02
  0.1987827       5.030619      1.0745706E-02  6.3390791E-02
  0.1926708       5.190199      1.0305527E-02  6.3390791E-02
  0.1867469       5.354843      9.6642636E-03  6.3390791E-02
  0.1810050       5.524709      8.8854767E-03  6.3390791E-02
  0.1754397       5.699963      7.9383943E-03  6.3390791E-02
  0.1700456       5.880777      7.0933807E-03  6.3390791E-02
  0.1648172       6.067327      6.3046380E-03  6.3390791E-02
  0.1597497       6.259794      5.9175380E-03  6.2293179E-02
  0.1548379       6.458367      5.4410137E-03  6.2293179E-02
  0.1500772       6.663239      5.0149481E-03  6.2293179E-02
  0.1454628       6.874609      4.6171513E-03  6.2293179E-02
  0.1409903       7.092686      4.1284892E-03  6.2293179E-02
  0.1366553       7.317679      3.6905629E-03  6.2293179E-02
  0.1324537       7.549810      3.3875934E-03  6.2293179E-02
  0.1283812       7.789305      3.0756763E-03  6.2293179E-02
  0.1244339       8.036396      2.9117011E-03  6.2293179E-02
  0.1206080       8.291327      2.7133413E-03  6.2293179E-02
  0.1168997       8.554343      2.4787029E-03  6.2293179E-02
  0.1133054       8.825704      2.2102238E-03  6.2293179E-02
  0.1098217       9.105672      1.9265908E-03  6.0998358E-02
  0.1064450       9.394522      1.6585579E-03  6.0998358E-02
  0.1031722       9.692533      1.4364920E-03  6.0998358E-02
  0.1000000       10.00000      1.2831079E-03  6.0998358E-02
