 Calculated PSA for the frequency range: 
 Station:   STCO
 Component: HHZ
  0.1000000      Hz and    50.00000      Hz
         200 frequencies distributed logarithmically
 Oscillator damping is   5.000000     % of critical
  Freq.(Hz)       Period(s)      PSA(cm/s^2)  Smooth PSA(cm/s^2)
   50.00000      1.9999998E-02  0.7477999      0.7477999    
   48.46267      2.0634437E-02  0.7496610      0.7506964    
   46.97261      2.1289000E-02  0.7517318      0.7518544    
   45.52837      2.1964328E-02  0.7541704      0.7538249    
   44.12852      2.2661081E-02  0.7555724      0.7546464    
   42.77172      2.3379933E-02  0.7541963      0.7543340    
   41.45663      2.4121592E-02  0.7532331      0.7545366    
   40.18199      2.4886772E-02  0.7561801      0.7568696    
   38.94653      2.5676232E-02  0.7611955      0.7614902    
   37.74905      2.6490729E-02  0.7670951      0.7667806    
   36.58840      2.7331069E-02  0.7720514      0.7712393    
   35.46343      2.8198060E-02  0.7745715      0.7764282    
   34.37305      2.9092560E-02  0.7826616      0.7822003    
   33.31620      3.0015431E-02  0.7893677      0.7885620    
   32.29184      3.0967580E-02  0.7936565      0.7930744    
   31.29897      3.1949930E-02  0.7961990      0.7951939    
   30.33664      3.2963444E-02  0.7957262      0.7970892    
   29.40389      3.4009106E-02  0.7993423      0.8014696    
   28.49982      3.5087943E-02  0.8093402      0.8140251    
   27.62355      3.6201000E-02  0.8333928      0.8240962    
   26.77422      3.7349366E-02  0.8295557      0.8285534    
   25.95100      3.8534161E-02  0.8227116      0.8269589    
   25.15310      3.9756540E-02  0.8286092      0.8236294    
   24.37972      4.1017693E-02  0.8195673      0.8217009    
   23.63013      4.2318851E-02  0.8102981      0.8364445    
   22.90358      4.3661289E-02  0.8283288      0.8551399    
   22.19938      4.5046311E-02  0.8875835      0.8876575    
   21.51682      4.6475261E-02  0.9299215      0.9262449    
   20.85525      4.7949549E-02  0.9821559      0.9578602    
   20.21403      4.9470600E-02   1.003235      0.9744104    
   19.59251      5.1039908E-02  0.9864059      0.9772414    
   18.99011      5.2658990E-02  0.9703336      0.9752440    
   18.40623      5.4329433E-02  0.9440770      0.9747959    
   17.84030      5.6052871E-02  0.9721691      0.9736300    
   17.29177      5.7830978E-02   1.000994      0.9872948    
   16.76011      5.9665482E-02  0.9805759      0.9846838    
   16.24479      6.1558187E-02   1.038658      0.9727728    
   15.74532      6.3510932E-02  0.9858062      0.9674413    
   15.26120      6.5525629E-02  0.9299004      0.9713689    
   14.79198      6.7604221E-02  0.9007019      0.9730258    
   14.33717      6.9748759E-02  0.9690053      0.9778512    
   13.89635      7.1961328E-02  0.9949346      0.9977823    
   13.46909      7.4244082E-02  0.9921739       1.036775    
   13.05496      7.6599240E-02   1.072435       1.100626    
   12.65356      7.9029121E-02   1.125325       1.226878    
   12.26451      8.1536077E-02   1.202847       1.304717    
   11.88742      8.4122561E-02   1.347664       1.376920    
   11.52192      8.6791091E-02   1.519297       1.422414    
   11.16766      8.9544266E-02   1.560344       1.423405    
   10.82429      9.2384785E-02   1.617653       1.455267    
   10.49148      9.5315412E-02   1.569795       1.478551    
   10.16891      9.8338999E-02   1.436388       1.541841    
   9.856246      0.1014585       1.431333       1.587309    
   9.553200      0.1046770       1.412082       1.656066    
   9.259472      0.1079975       1.412405       1.697958    
   8.974774      0.1114234       1.629003       1.744092    
   8.698831      0.1149580       1.830111       1.789514    
   8.431372      0.1186047       1.973971       1.816746    
   8.172135      0.1223670       2.247915       1.832189    
   7.920870      0.1262487       2.036580       1.842518    
   7.677330      0.1302536       2.031133       1.848303    
   7.441278      0.1343855       2.058808       1.821621    
   7.212485      0.1386485       1.974432       1.835324    
   6.990726      0.1430467       1.763174       1.856532    
   6.775784      0.1475844       1.616649       1.883051    
   6.567452      0.1522661       1.536030       1.855543    
   6.365525      0.1570962       1.481827       1.841251    
   6.169807      0.1620796       1.437983       1.826446    
   5.980107      0.1672211       1.692464       1.814525    
   5.796239      0.1725257       2.013465       1.800778    
   5.618024      0.1779985       2.127007       1.800000    
   5.445289      0.1836450       2.127258       1.828976    
   5.277865      0.1894706       2.101043       1.842758    
   5.115589      0.1954809       1.835291       1.847266    
   4.958302      0.2016820       1.822204       1.858628    
   4.805851      0.2080797       1.809058       1.887331    
   4.658087      0.2146804       1.704489       1.913095    
   4.514867      0.2214905       1.745749       1.897294    
   4.376050      0.2285166       1.825110       1.836950    
   4.241501      0.2357656       1.961207       1.790420    
   4.111090      0.2432445       2.036619       1.705804    
   3.984688      0.2509607       2.048119       1.661328    
   3.862172      0.2589217       2.090829       1.625776    
   3.743424      0.2671351       1.855299       1.578350    
   3.628326      0.2756092       1.694269       1.539921    
   3.516768      0.2843520       1.763272       1.506660    
   3.408639      0.2933722       2.055888       1.443430    
   3.303835      0.3026786       2.065834       1.374747    
   3.202253      0.3122801       1.800530       1.330928    
   3.103795      0.3221862       1.565464       1.286741    
   3.008364      0.3324066       1.232366       1.237636    
   2.915867      0.3429512      0.9694908       1.199467    
   2.826214      0.3538303      0.9432587       1.145053    
   2.739317      0.3650545      0.9370735       1.084130    
   2.655093      0.3766347      0.9495863       1.048533    
   2.573457      0.3885823       1.064963      0.9920138    
   2.494333      0.4009089       1.190267      0.9452019    
   2.417640      0.4136265       1.202883      0.8764347    
   2.343306      0.4267475       1.234679      0.8220947    
   2.271257      0.4402848       1.211646      0.7837917    
   2.201424      0.4542515       1.070587      0.7275012    
   2.133738      0.4686611      0.9716650      0.6934230    
   2.068133      0.4835280      0.8707223      0.6351664    
   2.004544      0.4988664      0.7659827      0.5801212    
   1.942912      0.5146915      0.6659787      0.5475881    
   1.883174      0.5310184      0.6015635      0.4961971    
   1.825273      0.5478634      0.5217549      0.4585073    
   1.769152      0.5652427      0.6139416      0.4061207    
   1.714756      0.5831733      0.6895405      0.3753644    
   1.662033      0.6016726      0.7592145      0.3260773    
   1.610931      0.6207589      0.7738343      0.2902216    
   1.561401      0.6404505      0.6911632      0.2681755    
   1.513393      0.6607669      0.6226625      0.2681755    
   1.466861      0.6817277      0.5601373      0.2593298    
   1.421760      0.7033534      0.5028800      0.2593298    
   1.378046      0.7256652      0.4968284      0.2527542    
   1.335676      0.7486846      0.4600103      0.2527542    
   1.294608      0.7724344      0.3850019      0.2463009    
   1.254804      0.7969375      0.3452697      0.2463009    
   1.216223      0.8222179      0.3432564      0.2397842    
   1.178828      0.8483002      0.3655128      0.2397842    
   1.142583      0.8752099      0.3560896      0.2330242    
   1.107453      0.9029732      0.3552693      0.2330242    
   1.073402      0.9316174      0.3125696      0.2250247    
   1.040399      0.9611701      0.2759299      0.2250247    
   1.008410      0.9916603      0.2810133      0.2250247    
  0.9774047       1.023118      0.2674914      0.2156534    
  0.9473529       1.055573      0.2271807      0.2156534    
  0.9182250       1.089058      0.2117884      0.2156534    
  0.8899927       1.123605      0.1959649      0.2059747    
  0.8626285       1.159248      0.1629811      0.2059747    
  0.8361056       1.196021      0.1693411      0.1957895    
  0.8103982       1.233961      0.1713460      0.1957895    
  0.7854812       1.273105      0.1721363      0.1957895    
  0.7613303       1.313490      0.1667745      0.1856310    
  0.7379220       1.355157      0.1493229      0.1856310    
  0.7152334       1.398145      0.1233859      0.1856310    
  0.6932424       1.442497      0.1013033      0.1766920    
  0.6719276       1.488256      8.7191805E-02  0.1766920    
  0.6512681       1.535466      8.5633226E-02  0.1766920    
  0.6312438       1.584174      9.2084929E-02  0.1685801    
  0.6118352       1.634427      8.9065768E-02  0.1685801    
  0.5930234       1.686274      8.1981286E-02  0.1685801    
  0.5747899       1.739766      7.4267253E-02  0.1685801    
  0.5571171       1.794955      6.7416988E-02  0.1613415    
  0.5399877       1.851894      6.3634887E-02  0.1613415    
  0.5233849       1.910640      6.5980352E-02  0.1613415    
  0.5072926       1.971249      5.8932874E-02  0.1613415    
  0.4916950       2.033781      4.7633581E-02  0.1550431    
  0.4765771       2.098296      4.1942306E-02  0.1550431    
  0.4619240       2.164858      4.1375875E-02  0.1550431    
  0.4477214       2.233532      4.2348519E-02  0.1550431    
  0.4339555       2.304384      3.9999250E-02  0.1496649    
  0.4206128       2.377483      4.1295990E-02  0.1496649    
  0.4076804       2.452902      3.7665468E-02  0.1496649    
  0.3951457       2.530712      3.3711441E-02  0.1496649    
  0.3829963       2.610991      2.7750265E-02  0.1448574    
  0.3712204       2.693817      2.5261389E-02  0.1448574    
  0.3598067       2.779270      2.5214018E-02  0.1448574    
  0.3487439       2.867434      2.5049519E-02  0.1448574    
  0.3380212       2.958395      2.4099410E-02  0.1448574    
  0.3276282       3.052241      2.3075338E-02  0.1448574    
  0.3175547       3.149064      2.5149029E-02  0.1408048    
  0.3077910       3.248958      2.9936722E-02  0.1408048    
  0.2983274       3.352021      3.3069257E-02  0.1408048    
  0.2891549       3.458354      3.1520162E-02  0.1408048    
  0.2802644       3.568060      2.5786847E-02  0.1408048    
  0.2716472       3.681245      2.1980971E-02  0.1408048    
  0.2632950       3.798022      2.0750428E-02  0.1356620    
  0.2551996       3.918502      2.0457132E-02  0.1356620    
  0.2473530       4.042805      2.0197449E-02  0.1356620    
  0.2397478       4.171050      2.5030075E-02  0.1356620    
  0.2323764       4.303364      2.8079638E-02  0.1356620    
  0.2252316       4.439875      2.7776640E-02  0.1356620    
  0.2183065       4.580716      2.4756586E-02  0.1356620    
  0.2115943       4.726026      2.0774830E-02  0.1295754    
  0.2050885       4.875944      1.6731126E-02  0.1295754    
  0.1987827       5.030619      1.3538620E-02  0.1295754    
  0.1926708       5.190199      1.1993998E-02  0.1295754    
  0.1867469       5.354843      1.1213762E-02  0.1295754    
  0.1810050       5.524709      1.1492183E-02  0.1295754    
  0.1754397       5.699963      1.1831451E-02  0.1295754    
  0.1700456       5.880777      1.1569064E-02  0.1295754    
  0.1648172       6.067327      1.2024430E-02  0.1295754    
  0.1597497       6.259794      1.1652375E-02  0.1225794    
  0.1548379       6.458367      1.0648943E-02  0.1225794    
  0.1500772       6.663239      9.2114052E-03  0.1225794    
  0.1454628       6.874609      7.9236571E-03  0.1225794    
  0.1409903       7.092686      6.9213365E-03  0.1225794    
  0.1366553       7.317679      6.0324399E-03  0.1225794    
  0.1324537       7.549810      5.2967984E-03  0.1225794    
  0.1283812       7.789305      4.6583028E-03  0.1225794    
  0.1244339       8.036396      4.0921224E-03  0.1225794    
  0.1206080       8.291327      3.6190106E-03  0.1225794    
  0.1168997       8.554343      3.2687203E-03  0.1225794    
  0.1133054       8.825704      3.0431591E-03  0.1225794    
  0.1098217       9.105672      2.9152730E-03  0.1152619    
  0.1064450       9.394522      2.8322015E-03  0.1152619    
  0.1031722       9.692533      2.7312459E-03  0.1152619    
  0.1000000       10.00000      2.5824162E-03  0.1152619    
