 Calculated PSA for the frequency range: 
 Station:   A21 
 Component: HHE
  0.1000000      Hz and    50.00000      Hz
         200 frequencies distributed logarithmically
 Oscillator damping is   5.000000     % of critical
  Freq.(Hz)       Period(s)      PSA(cm/s^2)  Smooth PSA(cm/s^2)
   50.00000      1.9999998E-02  0.4357129      0.4357129    
   48.46267      2.0634437E-02  0.4362789      0.4365707    
   46.97261      2.1289000E-02  0.4368625      0.4428900    
   45.52837      2.1964328E-02  0.4555286      0.4640257    
   44.12852      2.2661081E-02  0.4996861      0.4912129    
   42.77172      2.3379933E-02  0.5184240      0.5121611    
   41.45663      2.4121592E-02  0.5183731      0.5147023    
   40.18199      2.4886772E-02  0.5073097      0.5051063    
   38.94653      2.5676232E-02  0.4896360      0.4881739    
   37.74905      2.6490729E-02  0.4675759      0.4666107    
   36.58840      2.7331069E-02  0.4426201      0.4511387    
   35.46343      2.8198060E-02  0.4432203      0.4432507    
   34.37305      2.9092560E-02  0.4439119      0.4439006    
   33.31620      3.0015431E-02  0.4445698      0.4448218    
   32.29184      3.0967580E-02  0.4459839      0.4461336    
   31.29897      3.1949930E-02  0.4478472      0.4477901    
   30.33664      3.2963444E-02  0.4495391      0.4494054    
   29.40389      3.4009106E-02  0.4508300      0.4506214    
   28.49982      3.5087943E-02  0.4514951      0.4512714    
   27.62355      3.6201000E-02  0.4514890      0.4514803    
   26.77422      3.7349366E-02  0.4514568      0.4517911    
   25.95100      3.8534161E-02  0.4524275      0.4526619    
   25.15310      3.9756540E-02  0.4541014      0.4540304    
   24.37972      4.1017693E-02  0.4555624      0.4572926    
   23.63013      4.2318851E-02  0.4581243      0.4597848    
   22.90358      4.3661289E-02  0.4613821      0.4609496    
   22.19938      4.5046311E-02  0.4640705      0.4634063    
   21.51682      4.6475261E-02  0.4656086      0.4650775    
   20.85525      4.7949549E-02  0.4678459      0.4637821    
   20.21403      4.9470600E-02  0.4664805      0.4600032    
   19.59251      5.1039908E-02  0.4549051      0.4560779    
   18.99011      5.2658990E-02  0.4451758      0.4537130    
   18.40623      5.4329433E-02  0.4459819      0.4537352    
   17.84030      5.6052871E-02  0.4560217      0.4590471    
   17.29177      5.7830978E-02  0.4665914      0.4677320    
   16.76011      5.9665482E-02  0.4814645      0.4844035    
   16.24479      6.1558187E-02  0.4886002      0.4963482    
   15.74532      6.3510932E-02  0.5022848      0.5134279    
   15.26120      6.5525629E-02  0.5114587      0.5253323    
   14.79198      6.7604221E-02  0.5276898      0.5426276    
   14.33717      6.9748759E-02  0.5690692      0.5602344    
   13.89635      7.1961328E-02  0.5967591      0.5782700    
   13.46909      7.4244082E-02  0.6025315      0.5978807    
   13.05496      7.6599240E-02  0.6118482      0.6195141    
   12.65356      7.9029121E-02  0.6285333      0.6525545    
   12.26451      8.1536077E-02  0.6487339      0.6729307    
   11.88742      8.4122561E-02  0.6791236      0.6906891    
   11.52192      8.6791091E-02  0.7176648      0.7024622    
   11.16766      8.9544266E-02  0.7352419      0.7030728    
   10.82429      9.2384785E-02  0.7597685      0.7151233    
   10.49148      9.5315412E-02  0.7445981      0.7301943    
   10.16891      9.8338999E-02  0.7060336      0.7562150    
   9.856246      0.1014585      0.7079570      0.7728581    
   9.553200      0.1046770      0.7369878      0.7989229    
   9.259472      0.1079975      0.7843734      0.8300558    
   8.974774      0.1114234      0.8261794      0.8603079    
   8.698831      0.1149580      0.8433463      0.8620734    
   8.431372      0.1186047      0.8840949      0.8736838    
   8.172135      0.1223670      0.9958894      0.8833910    
   7.920870      0.1262487       1.071098      0.8880094    
   7.677330      0.1302536       1.047119      0.8955260    
   7.441278      0.1343855      0.9199408      0.9095358    
   7.212485      0.1386485      0.8218604      0.9161902    
   6.990726      0.1430467      0.8453589      0.9290308    
   6.775784      0.1475844      0.8244437      0.9626849    
   6.567452      0.1522661      0.7924082      0.9830297    
   6.365525      0.1570962      0.8745728       1.008072    
   6.169807      0.1620796      0.9665666       1.028592    
   5.980107      0.1672211      0.9372651       1.050841    
   5.796239      0.1725257       1.002698       1.068037    
   5.618024      0.1779985       1.023114       1.087944    
   5.445289      0.1836450       1.112050       1.113845    
   5.277865      0.1894706       1.205890       1.127499    
   5.115589      0.1954809       1.301061       1.149487    
   4.958302      0.2016820       1.446739       1.162856    
   4.805851      0.2080797       1.354912       1.174231    
   4.658087      0.2146804       1.230439       1.169983    
   4.514867      0.2214905       1.204973       1.162439    
   4.376050      0.2285166       1.212278       1.143651    
   4.241501      0.2357656       1.160282       1.134291    
   4.111090      0.2432445       1.108916       1.108288    
   3.984688      0.2509607       1.290611       1.075585    
   3.862172      0.2589217       1.373258       1.052385    
   3.743424      0.2671351       1.260310      0.9977126    
   3.628326      0.2756092       1.131408      0.9531344    
   3.516768      0.2843520       1.059773      0.9191366    
   3.408639      0.2933722       1.102079      0.8590429    
   3.303835      0.3026786       1.027241      0.8045118    
   3.202253      0.3122801       1.024343      0.7682034    
   3.103795      0.3221862       1.004013      0.7230449    
   3.008364      0.3324066      0.8913866      0.6801336    
   2.915867      0.3429512      0.7761989      0.6571122    
   2.826214      0.3538303      0.7874134      0.6212589    
   2.739317      0.3650545      0.7837276      0.5877495    
   2.655093      0.3766347      0.7496223      0.5723531    
   2.573457      0.3885823      0.7189506      0.5489484    
   2.494333      0.4009089      0.6473482      0.5342776    
   2.417640      0.4136265      0.5088436      0.5006478    
   2.343306      0.4267475      0.4006414      0.4699061    
   2.271257      0.4402848      0.3814730      0.4530701    
   2.201424      0.4542515      0.3597741      0.4203958    
   2.133738      0.4686611      0.3428814      0.4048860    
   2.068133      0.4835280      0.3151251      0.3746320    
   2.004544      0.4988664      0.2726955      0.3487256    
   1.942912      0.5146915      0.2903678      0.3319938    
   1.883174      0.5310184      0.2800081      0.3049342    
   1.825273      0.5478634      0.2434856      0.2838770    
   1.769152      0.5652427      0.2054587      0.2551455    
   1.714756      0.5831733      0.2053869      0.2362637    
   1.662033      0.6016726      0.2347482      0.2070272    
   1.610931      0.6207589      0.2285039      0.1844800    
   1.561401      0.6404505      0.2157955      0.1704032    
   1.513393      0.6607669      0.2103271      0.1704032    
   1.466861      0.6817277      0.2380074      0.1637887    
   1.421760      0.7033534      0.2704698      0.1637887    
   1.378046      0.7256652      0.2480941      0.1581182    
   1.335676      0.7486846      0.2588660      0.1581182    
   1.294608      0.7724344      0.2474498      0.1522370    
   1.254804      0.7969375      0.2272288      0.1522370    
   1.216223      0.8222179      0.2544260      0.1462795    
   1.178828      0.8483002      0.2898168      0.1462795    
   1.142583      0.8752099      0.3203676      0.1405334    
   1.107453      0.9029732      0.3779070      0.1405334    
   1.073402      0.9316174      0.3687198      0.1349717    
   1.040399      0.9611701      0.3186224      0.1349717    
   1.008410      0.9916603      0.2993151      0.1349717    
  0.9774047       1.023118      0.2852260      0.1299971    
  0.9473529       1.055573      0.2620594      0.1299971    
  0.9182250       1.089058      0.2312836      0.1299971    
  0.8899927       1.123605      0.2075304      0.1262830    
  0.8626285       1.159248      0.1907751      0.1262830    
  0.8361056       1.196021      0.1864902      0.1235666    
  0.8103982       1.233961      0.1890006      0.1235666    
  0.7854812       1.273105      0.1755895      0.1235666    
  0.7613303       1.313490      0.1560068      0.1209875    
  0.7379220       1.355157      0.1435491      0.1209875    
  0.7152334       1.398145      0.1351565      0.1209875    
  0.6932424       1.442497      0.1288981      0.1185755    
  0.6719276       1.488256      0.1305679      0.1185755    
  0.6512681       1.535466      0.1331759      0.1185755    
  0.6312438       1.584174      0.1278064      0.1162867    
  0.6118352       1.634427      0.1329850      0.1162867    
  0.5930234       1.686274      0.1405852      0.1162867    
  0.5747899       1.739766      0.1596985      0.1162867    
  0.5571171       1.794955      0.1633391      0.1142368    
  0.5399877       1.851894      0.1509333      0.1142368    
  0.5233849       1.910640      0.1411977      0.1142368    
  0.5072926       1.971249      0.1220002      0.1142368    
  0.4916950       2.033781      9.6425861E-02  0.1125862    
  0.4765771       2.098296      7.4010186E-02  0.1125862    
  0.4619240       2.164858      6.1715834E-02  0.1125862    
  0.4477214       2.233532      5.8452379E-02  0.1125862    
  0.4339555       2.304384      5.9141982E-02  0.1107148    
  0.4206128       2.377483      5.8010079E-02  0.1107148    
  0.4076804       2.452902      5.7353087E-02  0.1107148    
  0.3951457       2.530712      5.6443594E-02  0.1107148    
  0.3829963       2.610991      5.3896159E-02  0.1089138    
  0.3712204       2.693817      5.1467482E-02  0.1089138    
  0.3598067       2.779270      4.3972977E-02  0.1089138    
  0.3487439       2.867434      3.7557330E-02  0.1089138    
  0.3380212       2.958395      3.2866817E-02  0.1089138    
  0.3276282       3.052241      3.0557055E-02  0.1089138    
  0.3175547       3.149064      2.9204449E-02  0.1074668    
  0.3077910       3.248958      2.7543141E-02  0.1074668    
  0.2983274       3.352021      2.4851331E-02  0.1074668    
  0.2891549       3.458354      2.3220845E-02  0.1074668    
  0.2802644       3.568060      2.2000220E-02  0.1074668    
  0.2716472       3.681245      2.1287713E-02  0.1074668    
  0.2632950       3.798022      2.1077022E-02  0.1064017    
  0.2551996       3.918502      1.9197013E-02  0.1064017    
  0.2473530       4.042805      1.9460913E-02  0.1064017    
  0.2397478       4.171050      2.1180348E-02  0.1064017    
  0.2323764       4.303364      2.1128757E-02  0.1064017    
  0.2252316       4.439875      2.0986615E-02  0.1064017    
  0.2183065       4.580716      2.0267406E-02  0.1064017    
  0.2115943       4.726026      1.9442638E-02  0.1053139    
  0.2050885       4.875944      1.8915452E-02  0.1053139    
  0.1987827       5.030619      1.8394770E-02  0.1053139    
  0.1926708       5.190199      1.7508404E-02  0.1053139    
  0.1867469       5.354843      1.5906313E-02  0.1053139    
  0.1810050       5.524709      1.4080804E-02  0.1053139    
  0.1754397       5.699963      1.2489521E-02  0.1053139    
  0.1700456       5.880777      1.0750984E-02  0.1053139    
  0.1648172       6.067327      9.4971126E-03  0.1053139    
  0.1597497       6.259794      8.7177558E-03  0.1038757    
  0.1548379       6.458367      8.1798937E-03  0.1038757    
  0.1500772       6.663239      7.6503810E-03  0.1038757    
  0.1454628       6.874609      6.9972393E-03  0.1038757    
  0.1409903       7.092686      6.7521408E-03  0.1038757    
  0.1366553       7.317679      6.3423845E-03  0.1038757    
  0.1324537       7.549810      5.8150557E-03  0.1038757    
  0.1283812       7.789305      5.3030266E-03  0.1038757    
  0.1244339       8.036396      4.8569669E-03  0.1038757    
  0.1206080       8.291327      4.2666183E-03  0.1038757    
  0.1168997       8.554343      3.6662130E-03  0.1038757    
  0.1133054       8.825704      3.2333576E-03  0.1038757    
  0.1098217       9.105672      2.7732044E-03  0.1024754    
  0.1064450       9.394522      2.3716886E-03  0.1024754    
  0.1031722       9.692533      2.0610392E-03  0.1024754    
  0.1000000       10.00000      1.7959354E-03  0.1024754    
