 Calculated PSA for the frequency range: 
 Station:   GRQ 
 Component: EHZ
  0.1000000      Hz and    50.00000      Hz
         200 frequencies distributed logarithmically
 Oscillator damping is   5.000000     % of critical
  Freq.(Hz)       Period(s)      PSA(cm/s^2)  Smooth PSA(cm/s^2)
   50.00000      1.9999998E-02  0.5494311      0.5494311    
   48.46267      2.0634437E-02  0.5521446      0.5535765    
   46.97261      2.1289000E-02  0.5550084      0.5550659    
   45.52837      2.1964328E-02  0.5580446      0.5580756    
   44.12852      2.2661081E-02  0.5611739      0.5615597    
   42.77172      2.3379933E-02  0.5654607      0.5661091    
   41.45663      2.4121592E-02  0.5716928      0.5711489    
   40.18199      2.4886772E-02  0.5762935      0.5747647    
   38.94653      2.5676232E-02  0.5763078      0.5764803    
   37.74905      2.6490729E-02  0.5768397      0.5784823    
   36.58840      2.7331069E-02  0.5822995      0.5811496    
   35.46343      2.8198060E-02  0.5843095      0.5863688    
   34.37305      2.9092560E-02  0.5924974      0.5907497    
   33.31620      3.0015431E-02  0.5954422      0.5944796    
   32.29184      3.0967580E-02  0.5954995      0.5991729    
   31.29897      3.1949930E-02  0.6065772      0.6050428    
   30.33664      3.2963444E-02  0.6130516      0.6151760    
   29.40389      3.4009106E-02  0.6258994      0.6208815    
   28.49982      3.5087943E-02  0.6236933      0.6296771    
   27.62355      3.6201000E-02  0.6394385      0.6358626    
   26.77422      3.7349366E-02  0.6444561      0.6453853    
   25.95100      3.8534161E-02  0.6522614      0.6547406    
   25.15310      3.9756540E-02  0.6675044      0.6718404    
   24.37972      4.1017693E-02  0.6957552      0.7043633    
   23.63013      4.2318851E-02  0.7326468      0.7128697    
   22.90358      4.3661289E-02  0.7215471      0.7087083    
   22.19938      4.5046311E-02  0.7015296      0.7156946    
   21.51682      4.6475261E-02  0.6920630      0.7370198    
   20.85525      4.7949549E-02  0.7306867      0.7787815    
   20.21403      4.9470600E-02  0.8392726      0.8246036    
   19.59251      5.1039908E-02  0.9303558      0.8824145    
   18.99011      5.2658990E-02  0.9306399      0.9251607    
   18.40623      5.4329433E-02  0.9811175      0.9540406    
   17.84030      5.6052871E-02  0.9444175      0.9612435    
   17.29177      5.7830978E-02  0.9836720      0.9745059    
   16.76011      5.9665482E-02  0.9663709      0.9801574    
   16.24479      6.1558187E-02  0.9969516      0.9988026    
   15.74532      6.3510932E-02  0.9887092       1.031037    
   15.26120      6.5525629E-02   1.000823       1.052798    
   14.79198      6.7604221E-02   1.056288       1.092716    
   14.33717      6.9748759E-02   1.177081       1.124541    
   13.89635      7.1961328E-02   1.183361       1.152987    
   13.46909      7.4244082E-02   1.245800       1.168715    
   13.05496      7.6599240E-02   1.219726       1.177003    
   12.65356      7.9029121E-02   1.187831       1.171784    
   12.26451      8.1536077E-02   1.110919       1.181404    
   11.88742      8.4122561E-02   1.114300       1.220925    
   11.52192      8.6791091E-02   1.172041       1.282382    
   11.16766      8.9544266E-02   1.140293       1.323304    
   10.82429      9.2384785E-02   1.260320       1.356403    
   10.49148      9.5315412E-02   1.561973       1.397077    
   10.16891      9.8338999E-02   1.711377       1.447778    
   9.856246      0.1014585       1.650680       1.484697    
   9.553200      0.1046770       1.485723       1.522017    
   9.259472      0.1079975       1.476982       1.544103    
   8.974774      0.1114234       1.476033       1.537470    
   8.698831      0.1149580       1.542354       1.542006    
   8.431372      0.1186047       1.541239       1.534106    
   8.172135      0.1223670       1.513484       1.542152    
   7.920870      0.1262487       1.481182       1.577587    
   7.677330      0.1302536       1.495648       1.630190    
   7.441278      0.1343855       1.538720       1.736097    
   7.212485      0.1386485       1.590656       1.804648    
   6.990726      0.1430467       1.616566       1.894176    
   6.775784      0.1475844       1.747242       1.987223    
   6.567452      0.1522661       1.910933       2.002879    
   6.365525      0.1570962       2.108222       2.002519    
   6.169807      0.1620796       2.153507       1.994446    
   5.980107      0.1672211       2.329510       1.893191    
   5.796239      0.1725257       2.695804       1.858498    
   5.618024      0.1779985       2.795757       1.820787    
   5.445289      0.1836450       2.606198       1.732117    
   5.277865      0.1894706       2.224916       1.692917    
   5.115589      0.1954809       1.748329       1.625229    
   4.958302      0.2016820       1.475781       1.582520    
   4.805851      0.2080797       1.374551       1.527615    
   4.658087      0.2146804       1.211520       1.446487    
   4.514867      0.2214905       1.056035       1.429683    
   4.376050      0.2285166      0.9489332       1.372782    
   4.241501      0.2357656      0.9495683       1.312106    
   4.111090      0.2432445      0.9252886       1.260855    
   3.984688      0.2509607      0.9160062       1.293395    
   3.862172      0.2589217      0.9873165       1.263205    
   3.743424      0.2671351       1.049476       1.267725    
   3.628326      0.2756092       1.036926       1.277821    
   3.516768      0.2843520       1.056765       1.258823    
   3.408639      0.2933722       1.010110       1.248012    
   3.303835      0.3026786      0.9808112       1.236540    
   3.202253      0.3122801      0.9966363       1.218455    
   3.103795      0.3221862       1.076788       1.196488    
   3.008364      0.3324066       1.207574       1.173784    
   2.915867      0.3429512       1.242898       1.150352    
   2.826214      0.3538303       1.300250       1.130572    
   2.739317      0.3650545       1.391465       1.108112    
   2.655093      0.3766347       1.486372       1.081238    
   2.573457      0.3885823       1.630549       1.054244    
   2.494333      0.4009089       1.737217       1.005544    
   2.417640      0.4136265       1.821249      0.9581037    
   2.343306      0.4267475       1.862553      0.9265683    
   2.271257      0.4402848       1.747619      0.8810102    
   2.201424      0.4542515       1.523431      0.8355220    
   2.133738      0.4686611       1.304789      0.7979216    
   2.068133      0.4835280       1.197387      0.7448553    
   2.004544      0.4988664       1.192191      0.6954057    
   1.942912      0.5146915       1.218088      0.6560259    
   1.883174      0.5310184       1.152555      0.6151921    
   1.825273      0.5478634       1.114362      0.5684457    
   1.769152      0.5652427      0.9926710      0.5227400    
   1.714756      0.5831733      0.8836166      0.4822135    
   1.662033      0.6016726      0.8704283      0.4325542    
   1.610931      0.6207589      0.8126813      0.3847404    
   1.561401      0.6404505      0.7354469      0.3646096    
   1.513393      0.6607669      0.7224234      0.3646096    
   1.466861      0.6817277      0.7480273      0.3568760    
   1.421760      0.7033534      0.7325482      0.3568760    
   1.378046      0.7256652      0.6912869      0.3486721    
   1.335676      0.7486846      0.6563687      0.3486721    
   1.294608      0.7724344      0.6292877      0.3397788    
   1.254804      0.7969375      0.5749120      0.3397788    
   1.216223      0.8222179      0.5753389      0.3298572    
   1.178828      0.8483002      0.5390587      0.3298572    
   1.142583      0.8752099      0.4697601      0.3188428    
   1.107453      0.9029732      0.4029873      0.3188428    
   1.073402      0.9316174      0.3747399      0.3062303    
   1.040399      0.9611701      0.3331825      0.3062303    
   1.008410      0.9916603      0.2633124      0.3062303    
  0.9774047       1.023118      0.2239396      0.2923372    
  0.9473529       1.055573      0.2330771      0.2923372    
  0.9182250       1.089058      0.2403948      0.2923372    
  0.8899927       1.123605      0.2326359      0.2773479    
  0.8626285       1.159248      0.1990873      0.2773479    
  0.8361056       1.196021      0.1843796      0.2616528    
  0.8103982       1.233961      0.1501611      0.2616528    
  0.7854812       1.273105      0.1217047      0.2616528    
  0.7613303       1.313490      0.1181619      0.2467931    
  0.7379220       1.355157      0.1331018      0.2467931    
  0.7152334       1.398145      0.1493533      0.2467931    
  0.6932424       1.442497      0.1525157      0.2338978    
  0.6719276       1.488256      0.1369769      0.2338978    
  0.6512681       1.535466      0.1114535      0.2338978    
  0.6312438       1.584174      8.7520145E-02  0.2229703    
  0.6118352       1.634427      8.1861831E-02  0.2229703    
  0.5930234       1.686274      6.7810863E-02  0.2229703    
  0.5747899       1.739766      6.2588185E-02  0.2229703    
  0.5571171       1.794955      6.3345365E-02  0.2129248    
  0.5399877       1.851894      5.9481878E-02  0.2129248    
  0.5233849       1.910640      5.4735675E-02  0.2129248    
  0.5072926       1.971249      4.7894042E-02  0.2129248    
  0.4916950       2.033781      4.2083297E-02  0.2027241    
  0.4765771       2.098296      4.3785874E-02  0.2027241    
  0.4619240       2.164858      4.6499420E-02  0.2027241    
  0.4477214       2.233532      5.0191656E-02  0.2027241    
  0.4339555       2.304384      4.9710158E-02  0.1920360    
  0.4206128       2.377483      4.3277312E-02  0.1920360    
  0.4076804       2.452902      3.6173057E-02  0.1920360    
  0.3951457       2.530712      3.1488281E-02  0.1920360    
  0.3829963       2.610991      2.9644044E-02  0.1818177    
  0.3712204       2.693817      2.9307406E-02  0.1818177    
  0.3598067       2.779270      2.9507339E-02  0.1818177    
  0.3487439       2.867434      3.0884041E-02  0.1818177    
  0.3380212       2.958395      3.2666437E-02  0.1818177    
  0.3276282       3.052241      3.3163555E-02  0.1818177    
  0.3175547       3.149064      3.3213284E-02  0.1717904    
  0.3077910       3.248958      3.1862903E-02  0.1717904    
  0.2983274       3.352021      3.0038487E-02  0.1717904    
  0.2891549       3.458354      2.7199712E-02  0.1717904    
  0.2802644       3.568060      2.3428613E-02  0.1717904    
  0.2716472       3.681245      2.0840757E-02  0.1717904    
  0.2632950       3.798022      1.9144282E-02  0.1628678    
  0.2551996       3.918502      1.8675175E-02  0.1628678    
  0.2473530       4.042805      1.9403487E-02  0.1628678    
  0.2397478       4.171050      1.9738222E-02  0.1628678    
  0.2323764       4.303364      1.9166235E-02  0.1628678    
  0.2252316       4.439875      1.8550182E-02  0.1628678    
  0.2183065       4.580716      1.8696759E-02  0.1628678    
  0.2115943       4.726026      1.8885013E-02  0.1549474    
  0.2050885       4.875944      1.8872881E-02  0.1549474    
  0.1987827       5.030619      1.8901203E-02  0.1549474    
  0.1926708       5.190199      1.7983742E-02  0.1549474    
  0.1867469       5.354843      1.6217273E-02  0.1549474    
  0.1810050       5.524709      1.4160295E-02  0.1549474    
  0.1754397       5.699963      1.2260598E-02  0.1549474    
  0.1700456       5.880777      1.0404166E-02  0.1549474    
  0.1648172       6.067327      9.0287942E-03  0.1549474    
  0.1597497       6.259794      8.1405696E-03  0.1469977    
  0.1548379       6.458367      7.5326953E-03  0.1469977    
  0.1500772       6.663239      7.0426408E-03  0.1469977    
  0.1454628       6.874609      6.6856956E-03  0.1469977    
  0.1409903       7.092686      6.4581195E-03  0.1469977    
  0.1366553       7.317679      6.1898893E-03  0.1469977    
  0.1324537       7.549810      6.0633495E-03  0.1469977    
  0.1283812       7.789305      5.9252032E-03  0.1469977    
  0.1244339       8.036396      5.5995118E-03  0.1469977    
  0.1206080       8.291327      5.2158218E-03  0.1469977    
  0.1168997       8.554343      4.9496084E-03  0.1469977    
  0.1133054       8.825704      4.7661671E-03  0.1469977    
  0.1098217       9.105672      4.5646396E-03  0.1395181    
  0.1064450       9.394522      4.3254904E-03  0.1395181    
  0.1031722       9.692533      4.0335967E-03  0.1395181    
  0.1000000       10.00000      3.6986235E-03  0.1395181    
