 Calculated PSA for the frequency range: 
 Station:   GAC 
 Component: BHZ
  0.1000000      Hz and    50.00000      Hz
         200 frequencies distributed logarithmically
 Oscillator damping is   5.000000     % of critical
  Freq.(Hz)       Period(s)      PSA(cm/s^2)  Smooth PSA(cm/s^2)
   50.00000      1.9999998E-02   1.235735       1.235735    
   48.46267      2.0634437E-02   1.218636       1.203897    
   46.97261      2.1289000E-02   1.189157       1.192375    
   45.52837      2.1964328E-02   1.169331       1.178459    
   44.12852      2.2661081E-02   1.176888       1.181360    
   42.77172      2.3379933E-02   1.197861       1.199373    
   41.45663      2.4121592E-02   1.223370       1.223369    
   40.18199      2.4886772E-02   1.248875       1.249121    
   38.94653      2.5676232E-02   1.275118       1.275732    
   37.74905      2.6490729E-02   1.303203       1.303562    
   36.58840      2.7331069E-02   1.332364       1.329651    
   35.46343      2.8198060E-02   1.353387       1.349906    
   34.37305      2.9092560E-02   1.363966       1.351164    
   33.31620      3.0015431E-02   1.336138       1.323339    
   32.29184      3.0967580E-02   1.269912       1.289538    
   31.29897      3.1949930E-02   1.262564       1.267530    
   30.33664      3.2963444E-02   1.270113       1.242087    
   29.40389      3.4009106E-02   1.193583       1.206643    
   28.49982      3.5087943E-02   1.156234       1.183785    
   27.62355      3.6201000E-02   1.201538       1.188414    
   26.77422      3.7349366E-02   1.207469       1.192944    
   25.95100      3.8534161E-02   1.169824       1.151709    
   25.15310      3.9756540E-02   1.077833       1.073027    
   24.37972      4.1017693E-02  0.9714229       1.007358    
   23.63013      4.2318851E-02  0.9654207       1.009811    
   22.90358      4.3661289E-02   1.014756       1.039510    
   22.19938      4.5046311E-02   1.087645       1.085557    
   21.51682      4.6475261E-02   1.158303       1.141057    
   20.85525      4.7949549E-02   1.201659       1.195218    
   20.21403      4.9470600E-02   1.242923       1.243425    
   19.59251      5.1039908E-02   1.285558       1.287961    
   18.99011      5.2658990E-02   1.328681       1.343250    
   18.40623      5.4329433E-02   1.380984       1.411318    
   17.84030      5.6052871E-02   1.478101       1.485056    
   17.29177      5.7830978E-02   1.583267       1.569428    
   16.76011      5.9665482E-02   1.654247       1.641190    
   16.24479      6.1558187E-02   1.750542       1.629223    
   15.74532      6.3510932E-02   1.782367       1.623476    
   15.26120      6.5525629E-02   1.598618       1.604253    
   14.79198      6.7604221E-02   1.406299       1.573421    
   14.33717      6.9748759E-02   1.548780       1.538333    
   13.89635      7.1961328E-02   1.488919       1.497671    
   13.46909      7.4244082E-02   1.438426       1.504945    
   13.05496      7.6599240E-02   1.504924       1.527530    
   12.65356      7.9029121E-02   1.497730       1.591311    
   12.26451      8.1536077E-02   1.649538       1.669986    
   11.88742      8.4122561E-02   1.564393       1.793040    
   11.52192      8.6791091E-02   1.805315       1.920228    
   11.16766      8.9544266E-02   1.781246       1.956420    
   10.82429      9.2384785E-02   2.118320       2.010750    
   10.49148      9.5315412E-02   2.422852       2.035481    
   10.16891      9.8338999E-02   2.522428       2.074762    
   9.856246      0.1014585       2.245953       2.131429    
   9.553200      0.1046770       1.986700       2.196470    
   9.259472      0.1079975       1.872118       2.230614    
   8.974774      0.1114234       1.917708       2.251494    
   8.698831      0.1149580       2.074978       2.409879    
   8.431372      0.1186047       2.371990       2.497606    
   8.172135      0.1223670       2.431656       2.606051    
   7.920870      0.1262487       2.459754       2.722438    
   7.677330      0.1302536       2.631655       2.805185    
   7.441278      0.1343855       2.984966       2.797330    
   7.212485      0.1386485       3.418648       2.781585    
   6.990726      0.1430467       3.575145       2.820428    
   6.775784      0.1475844       3.547298       2.842036    
   6.567452      0.1522661       3.383335       2.827257    
   6.365525      0.1570962       2.865089       2.802174    
   6.169807      0.1620796       2.275677       2.754679    
   5.980107      0.1672211       2.345098       2.648124    
   5.796239      0.1725257       2.576907       2.602742    
   5.618024      0.1779985       2.618771       2.542555    
   5.445289      0.1836450       2.719693       2.502895    
   5.277865      0.1894706       2.796835       2.493922    
   5.115589      0.1954809       2.209980       2.407665    
   4.958302      0.2016820       2.083517       2.339658    
   4.805851      0.2080797       1.919224       2.283596    
   4.658087      0.2146804       1.738785       2.228489    
   4.514867      0.2214905       1.959143       2.202458    
   4.376050      0.2285166       2.213464       2.125714    
   4.241501      0.2357656       2.395472       2.068755    
   4.111090      0.2432445       2.739208       1.976138    
   3.984688      0.2509607       2.664607       1.917932    
   3.862172      0.2589217       2.332426       1.859322    
   3.743424      0.2671351       2.094383       1.766789    
   3.628326      0.2756092       2.221680       1.723457    
   3.516768      0.2843520       2.023208       1.684968    
   3.408639      0.2933722       1.743831       1.637220    
   3.303835      0.3026786       1.659587       1.611069    
   3.202253      0.3122801       1.742448       1.601752    
   3.103795      0.3221862       1.655803       1.604796    
   3.008364      0.3324066       1.444321       1.589266    
   2.915867      0.3429512       1.338130       1.573047    
   2.826214      0.3538303       1.266841       1.539685    
   2.739317      0.3650545       1.256550       1.507098    
   2.655093      0.3766347       1.208176       1.490609    
   2.573457      0.3885823       1.225608       1.449935    
   2.494333      0.4009089       1.213322       1.455323    
   2.417640      0.4136265       1.195834       1.431148    
   2.343306      0.4267475       1.124909       1.410952    
   2.271257      0.4402848       1.032860       1.409831    
   2.201424      0.4542515       1.132068       1.382407    
   2.133738      0.4686611       1.144882       1.346431    
   2.068133      0.4835280       1.093802       1.267835    
   2.004544      0.4988664       1.111882       1.201550    
   1.942912      0.5146915       1.224149       1.153296    
   1.883174      0.5310184       1.337042       1.097173    
   1.825273      0.5478634       1.408714       1.024004    
   1.769152      0.5652427       1.447289      0.9455036    
   1.714756      0.5831733       1.467399      0.8743874    
   1.662033      0.6016726       1.675807      0.7859513    
   1.610931      0.6207589       1.768228      0.6996860    
   1.561401      0.6404505       1.630911      0.6658629    
   1.513393      0.6607669       1.389464      0.6658629    
   1.466861      0.6817277       1.336510      0.6587210    
   1.421760      0.7033534       1.241923      0.6587210    
   1.378046      0.7256652       1.152619      0.6524302    
   1.335676      0.7486846       1.366138      0.6524302    
   1.294608      0.7724344       1.378263      0.6466881    
   1.254804      0.7969375       1.286002      0.6466881    
   1.216223      0.8222179       1.195337      0.6409347    
   1.178828      0.8483002       1.142783      0.6409347    
   1.142583      0.8752099       1.196006      0.6355324    
   1.107453      0.9029732       1.325522      0.6355324    
   1.073402      0.9316174       1.462107      0.6298586    
   1.040399      0.9611701       1.556203      0.6298586    
   1.008410      0.9916603       1.573961      0.6298586    
  0.9774047       1.023118       1.531957      0.6241938    
  0.9473529       1.055573       1.477965      0.6241938    
  0.9182250       1.089058       1.429080      0.6241938    
  0.8899927       1.123605       1.395158      0.6185896    
  0.8626285       1.159248       1.399031      0.6185896    
  0.8361056       1.196021       1.416232      0.6135765    
  0.8103982       1.233961       1.401407      0.6135765    
  0.7854812       1.273105       1.358043      0.6135765    
  0.7613303       1.313490       1.277530      0.6093836    
  0.7379220       1.355157       1.161634      0.6093836    
  0.7152334       1.398145       1.021433      0.6093836    
  0.6932424       1.442497      0.8606166      0.6041040    
  0.6719276       1.488256      0.7073684      0.6041040    
  0.6512681       1.535466      0.5645390      0.6041040    
  0.6312438       1.584174      0.4614255      0.5985858    
  0.6118352       1.634427      0.3989956      0.5985858    
  0.5930234       1.686274      0.3769962      0.5985858    
  0.5747899       1.739766      0.3864165      0.5985858    
  0.5571171       1.794955      0.4097745      0.5934805    
  0.5399877       1.851894      0.4316885      0.5934805    
  0.5233849       1.910640      0.4373729      0.5934805    
  0.5072926       1.971249      0.4382358      0.5934805    
  0.4916950       2.033781      0.4320207      0.5880805    
  0.4765771       2.098296      0.4129959      0.5880805    
  0.4619240       2.164858      0.3912193      0.5880805    
  0.4477214       2.233532      0.3852214      0.5880805    
  0.4339555       2.304384      0.3689277      0.5813851    
  0.4206128       2.377483      0.3469493      0.5813851    
  0.4076804       2.452902      0.3230038      0.5813851    
  0.3951457       2.530712      0.2923125      0.5813851    
  0.3829963       2.610991      0.2575047      0.5733461    
  0.3712204       2.693817      0.2247942      0.5733461    
  0.3598067       2.779270      0.1948500      0.5733461    
  0.3487439       2.867434      0.1645844      0.5733461    
  0.3380212       2.958395      0.1365869      0.5733461    
  0.3276282       3.052241      0.1169999      0.5733461    
  0.3175547       3.149064      0.1065241      0.5643637    
  0.3077910       3.248958      9.8073006E-02  0.5643637    
  0.2983274       3.352021      8.7882906E-02  0.5643637    
  0.2891549       3.458354      7.6425448E-02  0.5643637    
  0.2802644       3.568060      6.6607535E-02  0.5643637    
  0.2716472       3.681245      6.4098097E-02  0.5643637    
  0.2632950       3.798022      6.3235000E-02  0.5547667    
  0.2551996       3.918502      6.4197436E-02  0.5547667    
  0.2473530       4.042805      6.5693356E-02  0.5547667    
  0.2397478       4.171050      6.4408205E-02  0.5547667    
  0.2323764       4.303364      6.2550664E-02  0.5547667    
  0.2252316       4.439875      5.8359984E-02  0.5547667    
  0.2183065       4.580716      5.2962873E-02  0.5547667    
  0.2115943       4.726026      4.7917131E-02  0.5447378    
  0.2050885       4.875944      4.4309005E-02  0.5447378    
  0.1987827       5.030619      4.2505454E-02  0.5447378    
  0.1926708       5.190199      4.0231884E-02  0.5447378    
  0.1867469       5.354843      3.7534785E-02  0.5447378    
  0.1810050       5.524709      3.4681454E-02  0.5447378    
  0.1754397       5.699963      3.1961862E-02  0.5447378    
  0.1700456       5.880777      2.9546730E-02  0.5447378    
  0.1648172       6.067327      2.7433671E-02  0.5447378    
  0.1597497       6.259794      2.5470784E-02  0.5321703    
  0.1548379       6.458367      2.3642784E-02  0.5321703    
  0.1500772       6.663239      2.1870591E-02  0.5321703    
  0.1454628       6.874609      2.0048572E-02  0.5321703    
  0.1409903       7.092686      1.8254932E-02  0.5321703    
  0.1366553       7.317679      1.6625782E-02  0.5321703    
  0.1324537       7.549810      1.5191375E-02  0.5321703    
  0.1283812       7.789305      1.3921465E-02  0.5321703    
  0.1244339       8.036396      1.2818040E-02  0.5321703    
  0.1206080       8.291327      1.1870284E-02  0.5321703    
  0.1168997       8.554343      1.1036869E-02  0.5321703    
  0.1133054       8.825704      1.0277879E-02  0.5321703    
  0.1098217       9.105672      9.5648514E-03  0.5182821    
  0.1064450       9.394522      8.8846982E-03  0.5182821    
  0.1031722       9.692533      8.2366886E-03  0.5182821    
  0.1000000       10.00000      7.6237163E-03  0.5182821    
