 Calculated PSA for the frequency range: 
 Station:   STCO
 Component: HHE
  0.1000000      Hz and    50.00000      Hz
         200 frequencies distributed logarithmically
 Oscillator damping is   5.000000     % of critical
  Freq.(Hz)       Period(s)      PSA(cm/s^2)  Smooth PSA(cm/s^2)
   50.00000      1.9999998E-02   2.257370       2.257370    
   48.46267      2.0634437E-02   2.261962       2.264532    
   46.97261      2.1289000E-02   2.267103       2.267319    
   45.52837      2.1964328E-02   2.272892       2.272920    
   44.12852      2.2661081E-02   2.278765       2.278795    
   42.77172      2.3379933E-02   2.284727       2.285402    
   41.45663      2.4121592E-02   2.292714       2.293013    
   40.18199      2.4886772E-02   2.301597       2.299783    
   38.94653      2.5676232E-02   2.305036       2.303730    
   37.74905      2.6490729E-02   2.304557       2.305567    
   36.58840      2.7331069E-02   2.307107       2.309650    
   35.46343      2.8198060E-02   2.317285       2.318162    
   34.37305      2.9092560E-02   2.330093       2.329073    
   33.31620      3.0015431E-02   2.339840       2.334738    
   32.29184      3.0967580E-02   2.334280       2.345613    
   31.29897      3.1949930E-02   2.362720       2.364019    
   30.33664      3.2963444E-02   2.395058       2.386703    
   29.40389      3.4009106E-02   2.402331       2.397396    
   28.49982      3.5087943E-02   2.394799       2.370534    
   27.62355      3.6201000E-02   2.314472       2.342836    
   26.77422      3.7349366E-02   2.319238       2.314311    
   25.95100      3.8534161E-02   2.309223       2.322960    
   25.15310      3.9756540E-02   2.340421       2.327840    
   24.37972      4.1017693E-02   2.333876       2.326417    
   23.63013      4.2318851E-02   2.296770       2.330306    
   22.90358      4.3661289E-02   2.334600       2.336870    
   22.19938      4.5046311E-02   2.355979       2.354157    
   21.51682      4.6475261E-02   2.363127       2.393854    
   20.85525      4.7949549E-02   2.420311       2.432858    
   20.21403      4.9470600E-02   2.495251       2.460135    
   19.59251      5.1039908E-02   2.529621       2.486453    
   18.99011      5.2658990E-02   2.492364       2.506737    
   18.40623      5.4329433E-02   2.494715       2.510883    
   17.84030      5.6052871E-02   2.521735       2.515137    
   17.29177      5.7830978E-02   2.515981       2.542645    
   16.76011      5.9665482E-02   2.550892       2.608935    
   16.24479      6.1558187E-02   2.629900       2.667571    
   15.74532      6.3510932E-02   2.692971       2.741024    
   15.26120      6.5525629E-02   2.742132       2.772697    
   14.79198      6.7604221E-02   2.873552       2.839831    
   14.33717      6.9748759E-02   2.956696       2.910486    
   13.89635      7.1961328E-02   2.962736       2.982192    
   13.46909      7.4244082E-02   3.020831       3.048322    
   13.05496      7.6599240E-02   3.124479       3.121664    
   12.65356      7.9029121E-02   3.194916       3.238496    
   12.26451      8.1536077E-02   3.205047       3.368094    
   11.88742      8.4122561E-02   3.386941       3.558042    
   11.52192      8.6791091E-02   3.382483       3.778895    
   11.16766      8.9544266E-02   3.630536       3.885840    
   10.82429      9.2384785E-02   3.999524       4.007838    
   10.49148      9.5315412E-02   4.540407       4.124873    
   10.16891      9.8338999E-02   4.891304       4.312578    
   9.856246      0.1014585       4.741405       4.441096    
   9.553200      0.1046770       4.292896       4.532934    
   9.259472      0.1079975       4.258361       4.598594    
   8.974774      0.1114234       4.716544       4.600479    
   8.698831      0.1149580       4.672320       4.584152    
   8.431372      0.1186047       4.667664       4.563411    
   8.172135      0.1223670       4.548919       4.584383    
   7.920870      0.1262487       4.656124       4.648244    
   7.677330      0.1302536       4.559255       4.691183    
   7.441278      0.1343855       4.347476       4.807797    
   7.212485      0.1386485       4.657551       4.892339    
   6.990726      0.1430467       4.642413       5.044759    
   6.775784      0.1475844       4.993065       5.520537    
   6.567452      0.1522661       5.059235       5.788249    
   6.365525      0.1570962       4.773620       6.037504    
   6.169807      0.1620796       5.186882       6.279986    
   5.980107      0.1672211       5.736836       6.523129    
   5.796239      0.1725257       5.991389       6.837055    
   5.618024      0.1779985       6.806207       7.091301    
   5.445289      0.1836450       8.123944       7.417440    
   5.277865      0.1894706       8.725147       7.480232    
   5.115589      0.1954809       8.564590       7.671792    
   4.958302      0.2016820       8.394953       7.807961    
   4.805851      0.2080797       8.196498       7.930286    
   4.658087      0.2146804       7.863753       7.871082    
   4.514867      0.2214905       8.829639       7.726110    
   4.376050      0.2285166       9.684221       7.488895    
   4.241501      0.2357656       8.979720       7.375736    
   4.111090      0.2432445       8.894456       7.016611    
   3.984688      0.2509607       8.709745       6.640420    
   3.862172      0.2589217       8.610486       6.389463    
   3.743424      0.2671351       8.157180       5.939568    
   3.628326      0.2756092       8.147361       5.617433    
   3.516768      0.2843520       7.782591       5.371108    
   3.408639      0.2933722       7.220134       5.002492    
   3.303835      0.3026786       6.542133       4.644718    
   3.202253      0.3122801       5.331741       4.424012    
   3.103795      0.3221862       4.681690       4.123558    
   3.008364      0.3324066       4.328464       3.810403    
   2.915867      0.3429512       3.678525       3.654157    
   2.826214      0.3538303       3.388715       3.349307    
   2.739317      0.3650545       2.941936       3.077702    
   2.655093      0.3766347       2.621023       2.964565    
   2.573457      0.3885823       2.339885       2.713527    
   2.494333      0.4009089       1.912384       2.564826    
   2.417640      0.4136265       1.599056       2.297385    
   2.343306      0.4267475       1.513535       2.082196    
   2.271257      0.4402848       1.453899       1.975099    
   2.201424      0.4542515       1.268921       1.763206    
   2.133738      0.4686611       1.268317       1.679221    
   2.068133      0.4835280       1.421129       1.464303    
   2.004544      0.4988664       1.416479       1.274288    
   1.942912      0.5146915       1.291134       1.200505    
   1.883174      0.5310184       1.109881       1.046277    
   1.825273      0.5478634      0.9981201      0.9658032    
   1.769152      0.5652427      0.9914343      0.8256219    
   1.714756      0.5831733       1.014690      0.7604063    
   1.662033      0.6016726       1.015171      0.6412482    
   1.610931      0.6207589       1.057158      0.5699086    
   1.561401      0.6404505       1.046291      0.5119116    
   1.513393      0.6607669      0.9464734      0.5119116    
   1.466861      0.6817277      0.9323960      0.4768973    
   1.421760      0.7033534      0.9073040      0.4768973    
   1.378046      0.7256652      0.8776421      0.4472526    
   1.335676      0.7486846      0.8764583      0.4472526    
   1.294608      0.7724344      0.8808973      0.4197623    
   1.254804      0.7969375      0.8555270      0.4197623    
   1.216223      0.8222179      0.7862719      0.3959682    
   1.178828      0.8483002      0.7305223      0.3959682    
   1.142583      0.8752099      0.6990445      0.3747772    
   1.107453      0.9029732      0.6163803      0.3747772    
   1.073402      0.9316174      0.5589947      0.3558820    
   1.040399      0.9611701      0.4672647      0.3558820    
   1.008410      0.9916603      0.4227573      0.3558820    
  0.9774047       1.023118      0.4185590      0.3407703    
  0.9473529       1.055573      0.4518943      0.3407703    
  0.9182250       1.089058      0.3992139      0.3407703    
  0.8899927       1.123605      0.3145435      0.3284341    
  0.8626285       1.159248      0.2643001      0.3284341    
  0.8361056       1.196021      0.2499033      0.3167005    
  0.8103982       1.233961      0.2552339      0.3167005    
  0.7854812       1.273105      0.2794998      0.3167005    
  0.7613303       1.313490      0.3099810      0.3053285    
  0.7379220       1.355157      0.2966678      0.3053285    
  0.7152334       1.398145      0.2703744      0.3053285    
  0.6932424       1.442497      0.2459278      0.2955952    
  0.6719276       1.488256      0.1923826      0.2955952    
  0.6512681       1.535466      0.1481464      0.2955952    
  0.6312438       1.584174      0.1342289      0.2856695    
  0.6118352       1.634427      0.1324430      0.2856695    
  0.5930234       1.686274      0.1233671      0.2856695    
  0.5747899       1.739766      0.1148141      0.2856695    
  0.5571171       1.794955      0.1068720      0.2739637    
  0.5399877       1.851894      0.1065623      0.2739637    
  0.5233849       1.910640      9.7969502E-02  0.2739637    
  0.5072926       1.971249      8.3185554E-02  0.2739637    
  0.4916950       2.033781      6.8528898E-02  0.2620625    
  0.4765771       2.098296      5.8489703E-02  0.2620625    
  0.4619240       2.164858      5.3082477E-02  0.2620625    
  0.4477214       2.233532      4.7383863E-02  0.2620625    
  0.4339555       2.304384      4.5010194E-02  0.2512302    
  0.4206128       2.377483      4.4086717E-02  0.2512302    
  0.4076804       2.452902      4.4817049E-02  0.2512302    
  0.3951457       2.530712      4.5998644E-02  0.2512302    
  0.3829963       2.610991      4.6575274E-02  0.2420956    
  0.3712204       2.693817      4.5265548E-02  0.2420956    
  0.3598067       2.779270      3.8888924E-02  0.2420956    
  0.3487439       2.867434      3.8827118E-02  0.2420956    
  0.3380212       2.958395      3.7382636E-02  0.2420956    
  0.3276282       3.052241      3.5194520E-02  0.2420956    
  0.3175547       3.149064      3.3120751E-02  0.2339663    
  0.3077910       3.248958      3.0677967E-02  0.2339663    
  0.2983274       3.352021      2.7785962E-02  0.2339663    
  0.2891549       3.458354      2.4483945E-02  0.2339663    
  0.2802644       3.568060      2.1472475E-02  0.2339663    
  0.2716472       3.681245      1.9101972E-02  0.2339663    
  0.2632950       3.798022      1.7335264E-02  0.2257330    
  0.2551996       3.918502      1.6035262E-02  0.2257330    
  0.2473530       4.042805      1.5111551E-02  0.2257330    
  0.2397478       4.171050      1.4612578E-02  0.2257330    
  0.2323764       4.303364      1.4411489E-02  0.2257330    
  0.2252316       4.439875      1.4217464E-02  0.2257330    
  0.2183065       4.580716      1.3867383E-02  0.2257330    
  0.2115943       4.726026      1.3284775E-02  0.2170631    
  0.2050885       4.875944      1.2575704E-02  0.2170631    
  0.1987827       5.030619      1.1825115E-02  0.2170631    
  0.1926708       5.190199      1.1125767E-02  0.2170631    
  0.1867469       5.354843      1.0517873E-02  0.2170631    
  0.1810050       5.524709      9.9335713E-03  0.2170631    
  0.1754397       5.699963      9.2888717E-03  0.2170631    
  0.1700456       5.880777      8.5820220E-03  0.2170631    
  0.1648172       6.067327      7.8336457E-03  0.2170631    
  0.1597497       6.259794      7.1780700E-03  0.2081952    
  0.1548379       6.458367      6.5958649E-03  0.2081952    
  0.1500772       6.663239      6.3489527E-03  0.2081952    
  0.1454628       6.874609      5.9922668E-03  0.2081952    
  0.1409903       7.092686      5.6124912E-03  0.2081952    
  0.1366553       7.317679      5.2391007E-03  0.2081952    
  0.1324537       7.549810      4.8662168E-03  0.2081952    
  0.1283812       7.789305      4.5116469E-03  0.2081952    
  0.1244339       8.036396      4.2030877E-03  0.2081952    
  0.1206080       8.291327      3.9400379E-03  0.2081952    
  0.1168997       8.554343      3.6935292E-03  0.2081952    
  0.1133054       8.825704      3.4632469E-03  0.2081952    
  0.1098217       9.105672      3.2470238E-03  0.1986563    
  0.1064450       9.394522      3.0364702E-03  0.1986563    
  0.1031722       9.692533      2.8290225E-03  0.1986563    
  0.1000000       10.00000      2.6285921E-03  0.1986563    
