 Calculated PSA for the frequency range: 
 Station:   A54 
 Component: HHN
  0.1000000      Hz and    50.00000      Hz
         200 frequencies distributed logarithmically
 Oscillator damping is   5.000000     % of critical
  Freq.(Hz)       Period(s)      PSA(cm/s^2)  Smooth PSA(cm/s^2)
   50.00000      1.9999998E-02  0.4739788      0.4739788    
   48.46267      2.0634437E-02  0.4753640      0.4761057    
   46.97261      2.1289000E-02  0.4768475      0.4768730    
   45.52837      2.1964328E-02  0.4784077      0.4780928    
   44.12852      2.2661081E-02  0.4790232      0.4783962    
   42.77172      2.3379933E-02  0.4777577      0.4792213    
   41.45663      2.4121592E-02  0.4808829      0.4803227    
   40.18199      2.4886772E-02  0.4823277      0.4828655    
   38.94653      2.5676232E-02  0.4853860      0.4856334    
   37.74905      2.6490729E-02  0.4891865      0.4875160    
   36.58840      2.7331069E-02  0.4879756      0.4892479    
   35.46343      2.8198060E-02  0.4905818      0.4876334    
   34.37305      2.9092560E-02  0.4843428      0.4899763    
   33.31620      3.0015431E-02  0.4950044      0.4947571    
   32.29184      3.0967580E-02  0.5049241      0.5027046    
   31.29897      3.1949930E-02  0.5081854      0.5072402    
   30.33664      3.2963444E-02  0.5086111      0.5077159    
   29.40389      3.4009106E-02  0.5063512      0.5072749    
   28.49982      3.5087943E-02  0.5068622      0.5089338    
   27.62355      3.6201000E-02  0.5135882      0.5175355    
   26.77422      3.7349366E-02  0.5321561      0.5327683    
   25.95100      3.8534161E-02  0.5525607      0.5469567    
   25.15310      3.9756540E-02  0.5561535      0.5579742    
   24.37972      4.1017693E-02  0.5652083      0.5490752    
   23.63013      4.2318851E-02  0.5505663      0.5517638    
   22.90358      4.3661289E-02  0.5243728      0.5603884    
   22.19938      4.5046311E-02  0.5669081      0.5718766    
   21.51682      4.6475261E-02  0.5948869      0.5831298    
   20.85525      4.7949549E-02  0.6226489      0.5946526    
   20.21403      4.9470600E-02  0.6068323      0.6072718    
   19.59251      5.1039908E-02  0.5819869      0.6391016    
   18.99011      5.2658990E-02  0.6300038      0.6674205    
   18.40623      5.4329433E-02  0.7540362      0.6942681    
   17.84030      5.6052871E-02  0.7642436      0.7219497    
   17.29177      5.7830978E-02  0.7410703      0.7329589    
   16.76011      5.9665482E-02  0.7203946      0.6994070    
   16.24479      6.1558187E-02  0.6850497      0.6928628    
   15.74532      6.3510932E-02  0.6484013      0.7006369    
   15.26120      6.5525629E-02  0.6372827      0.7105697    
   14.79198      6.7604221E-02  0.7249786      0.7290017    
   14.33717      6.9748759E-02  0.7877148      0.7504864    
   13.89635      7.1961328E-02  0.7701659      0.7904176    
   13.46909      7.4244082E-02  0.8494192      0.8430279    
   13.05496      7.6599240E-02  0.8354425      0.8834682    
   12.65356      7.9029121E-02  0.9279196      0.9292142    
   12.26451      8.1536077E-02   1.005554      0.9673361    
   11.88742      8.4122561E-02   1.008060       1.001048    
   11.52192      8.6791091E-02   1.035070       1.022116    
   11.16766      8.9544266E-02   1.002082       1.015563    
   10.82429      9.2384785E-02   1.075141       1.020012    
   10.49148      9.5315412E-02   1.119118       1.033545    
   10.16891      9.8338999E-02   1.003979       1.091352    
   9.856246      0.1014585      0.9631447       1.123466    
   9.553200      0.1046770      0.9679585       1.169317    
   9.259472      0.1079975       1.127351       1.208869    
   8.974774      0.1114234       1.314615       1.235709    
   8.698831      0.1149580       1.305066       1.267303    
   8.431372      0.1186047       1.356206       1.312886    
   8.172135      0.1223670       1.460592       1.362321    
   7.920870      0.1262487       1.470662       1.392827    
   7.677330      0.1302536       1.387513       1.393370    
   7.441278      0.1343855       1.377130       1.356117    
   7.212485      0.1386485       1.473421       1.346286    
   6.990726      0.1430467       1.550979       1.344099    
   6.775784      0.1475844       1.556366       1.321897    
   6.567452      0.1522661       1.334027       1.293801    
   6.365525      0.1570962       1.133856       1.271532    
   6.169807      0.1620796       1.097142       1.257075    
   5.980107      0.1672211       1.126564       1.237358    
   5.796239      0.1725257       1.218475       1.219056    
   5.618024      0.1779985       1.274453       1.198371    
   5.445289      0.1836450       1.261633       1.196641    
   5.277865      0.1894706       1.105643       1.205497    
   5.115589      0.1954809       1.039146       1.178397    
   4.958302      0.2016820       1.136628       1.156751    
   4.805851      0.2080797       1.170656       1.141883    
   4.658087      0.2146804       1.125743       1.099585    
   4.514867      0.2214905       1.053228       1.073206    
   4.376050      0.2285166       1.065985       1.019900    
   4.241501      0.2357656       1.121780      0.9863720    
   4.111090      0.2432445       1.307340      0.9269750    
   3.984688      0.2509607       1.410868      0.8833276    
   3.862172      0.2589217       1.364913      0.8483450    
   3.743424      0.2671351       1.200555      0.7988715    
   3.628326      0.2756092       1.019305      0.7617301    
   3.516768      0.2843520      0.9011139      0.7358356    
   3.408639      0.2933722      0.8364881      0.6912494    
   3.303835      0.3026786      0.7368975      0.6450276    
   3.202253      0.3122801      0.6138655      0.6164014    
   3.103795      0.3221862      0.5192593      0.5751795    
   3.008364      0.3324066      0.5061070      0.5398584    
   2.915867      0.3429512      0.4676252      0.5212142    
   2.826214      0.3538303      0.4473246      0.4874552    
   2.739317      0.3650545      0.4381689      0.4535378    
   2.655093      0.3766347      0.3971276      0.4389773    
   2.573457      0.3885823      0.3506327      0.4037522    
   2.494333      0.4009089      0.3684858      0.3860272    
   2.417640      0.4136265      0.3520842      0.3507286    
   2.343306      0.4267475      0.3221118      0.3236075    
   2.271257      0.4402848      0.2960905      0.3136849    
   2.201424      0.4542515      0.2551616      0.2851705    
   2.133738      0.4686611      0.2654798      0.2754683    
   2.068133      0.4835280      0.2882072      0.2519692    
   2.004544      0.4988664      0.2785046      0.2305417    
   1.942912      0.5146915      0.2563725      0.2203280    
   1.883174      0.5310184      0.2358594      0.2018106    
   1.825273      0.5478634      0.1931706      0.1887487    
   1.769152      0.5652427      0.1724334      0.1702129    
   1.714756      0.5831733      0.1729560      0.1579624    
   1.662033      0.6016726      0.1686627      0.1393222    
   1.610931      0.6207589      0.1719369      0.1242642    
   1.561401      0.6404505      0.1887082      0.1162497    
   1.513393      0.6607669      0.2034627      0.1162497    
   1.466861      0.6817277      0.2040785      0.1126731    
   1.421760      0.7033534      0.1858055      0.1126731    
   1.378046      0.7256652      0.1588862      0.1093865    
   1.335676      0.7486846      0.1454674      0.1093865    
   1.294608      0.7724344      0.1381439      0.1062282    
   1.254804      0.7969375      0.1483112      0.1062282    
   1.216223      0.8222179      0.1611911      0.1030966    
   1.178828      0.8483002      0.1489078      0.1030966    
   1.142583      0.8752099      0.1392690      0.1002963    
   1.107453      0.9029732      0.1275939      0.1002963    
   1.073402      0.9316174      0.1278535      9.7889259E-02
   1.040399      0.9611701      0.1369944      9.7889259E-02
   1.008410      0.9916603      0.1487798      9.7889259E-02
  0.9774047       1.023118      0.1675619      9.5262110E-02
  0.9473529       1.055573      0.1732854      9.5262110E-02
  0.9182250       1.089058      0.1830444      9.5262110E-02
  0.8899927       1.123605      0.2061283      9.2744246E-02
  0.8626285       1.159248      0.2076981      9.2744246E-02
  0.8361056       1.196021      0.1857157      9.0473279E-02
  0.8103982       1.233961      0.1502437      9.0473279E-02
  0.7854812       1.273105      0.1288082      9.0473279E-02
  0.7613303       1.313490      0.1193383      8.8417113E-02
  0.7379220       1.355157      0.1063960      8.8417113E-02
  0.7152334       1.398145      9.0930618E-02  8.8417113E-02
  0.6932424       1.442497      9.3362160E-02  8.6732827E-02
  0.6719276       1.488256      0.1031444      8.6732827E-02
  0.6512681       1.535466      0.1156832      8.6732827E-02
  0.6312438       1.584174      0.1188131      8.4908873E-02
  0.6118352       1.634427      0.1152521      8.4908873E-02
  0.5930234       1.686274      0.1128580      8.4908873E-02
  0.5747899       1.739766      0.1123379      8.4908873E-02
  0.5571171       1.794955      0.1058202      8.2813017E-02
  0.5399877       1.851894      9.0367660E-02  8.2813017E-02
  0.5233849       1.910640      7.2531670E-02  8.2813017E-02
  0.5072926       1.971249      5.9798453E-02  8.2813017E-02
  0.4916950       2.033781      6.1751954E-02  8.0774568E-02
  0.4765771       2.098296      6.3943908E-02  8.0774568E-02
  0.4619240       2.164858      6.2350672E-02  8.0774568E-02
  0.4477214       2.233532      6.0011510E-02  8.0774568E-02
  0.4339555       2.304384      6.2903814E-02  7.8926168E-02
  0.4206128       2.377483      6.2453404E-02  7.8926168E-02
  0.4076804       2.452902      5.2418750E-02  7.8926168E-02
  0.3951457       2.530712      4.1996118E-02  7.8926168E-02
  0.3829963       2.610991      3.4849934E-02  7.7256665E-02
  0.3712204       2.693817      3.3773899E-02  7.7256665E-02
  0.3598067       2.779270      3.5733312E-02  7.7256665E-02
  0.3487439       2.867434      4.0045507E-02  7.7256665E-02
  0.3380212       2.958395      4.3621007E-02  7.7256665E-02
  0.3276282       3.052241      4.3204345E-02  7.7256665E-02
  0.3175547       3.149064      3.8681947E-02  7.6010279E-02
  0.3077910       3.248958      3.3822589E-02  7.6010279E-02
  0.2983274       3.352021      3.2122940E-02  7.6010279E-02
  0.2891549       3.458354      3.1640626E-02  7.6010279E-02
  0.2802644       3.568060      3.1040646E-02  7.6010279E-02
  0.2716472       3.681245      3.0465517E-02  7.6010279E-02
  0.2632950       3.798022      2.7722685E-02  7.4962199E-02
  0.2551996       3.918502      2.2371003E-02  7.4962199E-02
  0.2473530       4.042805      1.7545462E-02  7.4962199E-02
  0.2397478       4.171050      1.6372871E-02  7.4962199E-02
  0.2323764       4.303364      1.3984674E-02  7.4962199E-02
  0.2252316       4.439875      1.3170135E-02  7.4962199E-02
  0.2183065       4.580716      1.4529937E-02  7.4962199E-02
  0.2115943       4.726026      1.4663810E-02  7.3885344E-02
  0.2050885       4.875944      1.3356941E-02  7.3885344E-02
  0.1987827       5.030619      1.3227885E-02  7.3885344E-02
  0.1926708       5.190199      1.2522425E-02  7.3885344E-02
  0.1867469       5.354843      1.1787596E-02  7.3885344E-02
  0.1810050       5.524709      1.1212634E-02  7.3885344E-02
  0.1754397       5.699963      1.0671929E-02  7.3885344E-02
  0.1700456       5.880777      9.8411711E-03  7.3885344E-02
  0.1648172       6.067327      9.4647128E-03  7.3885344E-02
  0.1597497       6.259794      8.9380397E-03  7.2832264E-02
  0.1548379       6.458367      7.9796305E-03  7.2832264E-02
  0.1500772       6.663239      6.7021786E-03  7.2832264E-02
  0.1454628       6.874609      5.4050898E-03  7.2832264E-02
  0.1409903       7.092686      5.1976894E-03  7.2832264E-02
  0.1366553       7.317679      4.8780120E-03  7.2832264E-02
  0.1324537       7.549810      4.4120750E-03  7.2832264E-02
  0.1283812       7.789305      3.8545711E-03  7.2832264E-02
  0.1244339       8.036396      3.4118618E-03  7.2832264E-02
  0.1206080       8.291327      3.2873193E-03  7.2832264E-02
  0.1168997       8.554343      3.2935515E-03  7.2832264E-02
  0.1133054       8.825704      3.2924965E-03  7.2832264E-02
  0.1098217       9.105672      3.1058821E-03  7.1718730E-02
  0.1064450       9.394522      2.7616697E-03  7.1718730E-02
  0.1031722       9.692533      2.3037060E-03  7.1718730E-02
  0.1000000       10.00000      2.2930400E-03  7.1718730E-02
