 Calculated PSA for the frequency range: 
 Station:   LMN 
 Component: BHZ
  0.1000000      Hz and    50.00000      Hz
         200 frequencies distributed logarithmically
 Oscillator damping is   5.000000     % of critical
  Freq.(Hz)       Period(s)      PSA(cm/s^2)  Smooth PSA(cm/s^2)
   50.00000      1.9999998E-02  4.7237702E-02  4.7237702E-02
   48.46267      2.0634437E-02  4.7627445E-02  4.7646213E-02
   46.97261      2.1289000E-02  4.7664981E-02  4.7517046E-02
   45.52837      2.1964328E-02  4.7258709E-02  4.7274251E-02
   44.12852      2.2661081E-02  4.6899058E-02  4.7021016E-02
   42.77172      2.3379933E-02  4.6905279E-02  4.6887014E-02
   41.45663      2.4121592E-02  4.6856709E-02  4.6842810E-02
   40.18199      2.4886772E-02  4.6766438E-02  4.6769250E-02
   38.94653      2.5676232E-02  4.6684619E-02  4.6675365E-02
   37.74905      2.6490729E-02  4.6575047E-02  4.6663728E-02
   36.58840      2.7331069E-02  4.6731513E-02  4.6689209E-02
   35.46343      2.8198060E-02  4.6761062E-02  4.6666037E-02
   34.37305      2.9092560E-02  4.6505529E-02  4.6288650E-02
   33.31620      3.0015431E-02  4.5599349E-02  4.6084527E-02
   32.29184      3.0967580E-02  4.6148703E-02  4.6269417E-02
   31.29897      3.1949930E-02  4.7060188E-02  4.6880007E-02
   30.33664      3.2963444E-02  4.7431123E-02  4.7231320E-02
   29.40389      3.4009106E-02  4.7202654E-02  4.7184616E-02
   28.49982      3.5087943E-02  4.6920072E-02  4.6942025E-02
   27.62355      3.6201000E-02  4.6703339E-02  4.6819959E-02
   26.77422      3.7349366E-02  4.6836473E-02  4.6895206E-02
   25.95100      3.8534161E-02  4.7145806E-02  4.7052246E-02
   25.15310      3.9756540E-02  4.7174461E-02  4.7075808E-02
   24.37972      4.1017693E-02  4.6907146E-02  4.7074087E-02
   23.63013      4.2318851E-02  4.7125403E-02  4.7042370E-02
   22.90358      4.3661289E-02  4.7089353E-02  4.7025040E-02
   22.19938      4.5046311E-02  4.7047582E-02  4.7017891E-02
   21.51682      4.6475261E-02  4.6955716E-02  4.6960622E-02
   20.85525      4.7949549E-02  4.6871398E-02  4.6906881E-02
   20.21403      4.9470600E-02  4.6839062E-02  4.6851091E-02
   19.59251      5.1039908E-02  4.6820644E-02  4.6816994E-02
   18.99011      5.2658990E-02  4.6768628E-02  4.6808679E-02
   18.40623      5.4329433E-02  4.6785247E-02  4.6798356E-02
   17.84030      5.6052871E-02  4.6829823E-02  4.6809487E-02
   17.29177      5.7830978E-02  4.6787426E-02  4.6880368E-02
   16.76011      5.9665482E-02  4.6876311E-02  4.7027405E-02
   16.24479      6.1558187E-02  4.7123037E-02  4.7209959E-02
   15.74532      6.3510932E-02  4.7213644E-02  4.7494788E-02
   15.26120      6.5525629E-02  4.7334187E-02  4.7683634E-02
   14.79198      6.7604221E-02  4.7925156E-02  4.7947612E-02
   14.33717      6.9748759E-02  4.8496388E-02  4.8139285E-02
   13.89635      7.1961328E-02  4.8816726E-02  4.8282679E-02
   13.46909      7.4244082E-02  4.8724126E-02  4.8421036E-02
   13.05496      7.6599240E-02  4.8464797E-02  4.8376888E-02
   12.65356      7.9029121E-02  4.8217386E-02  4.8168384E-02
   12.26451      8.1536077E-02  4.8302695E-02  4.8193552E-02
   11.88742      8.4122561E-02  4.7616091E-02  4.8581749E-02
   11.52192      8.6791091E-02  4.7692161E-02  4.9239118E-02
   11.16766      8.9544266E-02  4.7513109E-02  4.9757525E-02
   10.82429      9.2384785E-02  4.9018040E-02  5.0403588E-02
   10.49148      9.5315412E-02  5.1829699E-02  5.1120464E-02
   10.16891      9.8338999E-02  5.3723752E-02  5.2496899E-02
   9.856246      0.1014585      5.3904764E-02  5.3430099E-02
   9.553200      0.1046770      5.4031990E-02  5.4563701E-02
   9.259472      0.1079975      5.4754589E-02  5.5940289E-02
   8.974774      0.1114234      5.6055363E-02  5.7331700E-02
   8.698831      0.1149580      5.6445513E-02  5.9375796E-02
   8.431372      0.1186047      5.7024118E-02  6.0508531E-02
   8.172135      0.1223670      5.8849193E-02  6.2017102E-02
   7.920870      0.1262487      6.2783897E-02  6.3780583E-02
   7.677330      0.1302536      6.5743789E-02  6.5517418E-02
   7.441278      0.1343855      6.9102086E-02  6.6929512E-02
   7.212485      0.1386485      7.0090532E-02  6.7013822E-02
   6.990726      0.1430467      6.7316487E-02  6.8328135E-02
   6.775784      0.1475844      7.2007686E-02  7.0641033E-02
   6.567452      0.1522661      7.5193726E-02  7.1745984E-02
   6.365525      0.1570962      7.5596541E-02  7.2563380E-02
   6.169807      0.1620796      7.2614297E-02  7.3397830E-02
   5.980107      0.1672211      6.7315668E-02  7.4695244E-02
   5.796239      0.1725257      6.8109863E-02  7.6477379E-02
   5.618024      0.1779985      7.4845985E-02  7.8115337E-02
   5.445289      0.1836450      8.0627702E-02  8.4485881E-02
   5.277865      0.1894706      7.9418018E-02  8.7909967E-02
   5.115589      0.1954809      7.5423338E-02  9.5334373E-02
   4.958302      0.2016820      7.5044855E-02  9.9032581E-02
   4.805851      0.2080797      7.8260608E-02  0.1020068    
   4.658087      0.2146804      8.1642643E-02  0.1064633    
   4.514867      0.2214905      8.7209053E-02  0.1081264    
   4.376050      0.2285166      9.9398412E-02  0.1114659    
   4.241501      0.2357656      9.7935759E-02  0.1140873    
   4.111090      0.2432445      0.1184912      0.1171941    
   3.984688      0.2509607      0.1416104      0.1187605    
   3.862172      0.2589217      0.1495435      0.1205532    
   3.743424      0.2671351      0.1564651      0.1222247    
   3.628326      0.2756092      0.1519406      0.1212983    
   3.516768      0.2843520      0.1491579      0.1221375    
   3.408639      0.2933722      0.1350807      0.1216707    
   3.303835      0.3026786      0.1254153      0.1217796    
   3.202253      0.3122801      0.1427921      0.1210324    
   3.103795      0.3221862      0.1430525      0.1214382    
   3.008364      0.3324066      0.1311415      0.1222438    
   2.915867      0.3429512      0.1211085      0.1212866    
   2.826214      0.3538303      0.1284033      0.1208117    
   2.739317      0.3650545      0.1317318      0.1200616    
   2.655093      0.3766347      0.1317652      0.1192663    
   2.573457      0.3885823      0.1420982      0.1189836    
   2.494333      0.4009089      0.1330162      0.1200405    
   2.417640      0.4136265      0.1272377      0.1213842    
   2.343306      0.4267475      0.1256768      0.1213732    
   2.271257      0.4402848      0.1194230      0.1209663    
   2.201424      0.4542515      0.1158372      0.1180548    
   2.133738      0.4686611      0.1017468      0.1149651    
   2.068133      0.4835280      9.9762186E-02  0.1099800    
   2.004544      0.4988664      9.2639044E-02  0.1045202    
   1.942912      0.5146915      9.0538576E-02  0.1002592    
   1.883174      0.5310184      9.3861476E-02  9.5547073E-02
   1.825273      0.5478634      0.1094448      8.9582957E-02
   1.769152      0.5652427      0.1116583      8.3417200E-02
   1.714756      0.5831733      0.1072443      7.7856973E-02
   1.662033      0.6016726      0.1035139      7.0683643E-02
   1.610931      0.6207589      0.1129558      6.3311696E-02
   1.561401      0.6404505      0.1202591      6.0360078E-02
   1.513393      0.6607669      0.1165859      6.0360078E-02
   1.466861      0.6817277      0.1058590      5.9710704E-02
   1.421760      0.7033534      0.1032139      5.9710704E-02
   1.378046      0.7256652      0.1035148      5.9142206E-02
   1.335676      0.7486846      9.9124223E-02  5.9142206E-02
   1.294608      0.7724344      9.3587868E-02  5.8494907E-02
   1.254804      0.7969375      9.5902711E-02  5.8494907E-02
   1.216223      0.8222179      0.1010622      5.7803992E-02
   1.178828      0.8483002      0.1064553      5.7803992E-02
   1.142583      0.8752099      0.1100999      5.7099596E-02
   1.107453      0.9029732      0.1157850      5.7099596E-02
   1.073402      0.9316174      0.1257140      5.6282304E-02
   1.040399      0.9611701      0.1354753      5.6282304E-02
   1.008410      0.9916603      0.1433226      5.6282304E-02
  0.9774047       1.023118      0.1481184      5.5537317E-02
  0.9473529       1.055573      0.1496819      5.5537317E-02
  0.9182250       1.089058      0.1470405      5.5537317E-02
  0.8899927       1.123605      0.1389534      5.4834370E-02
  0.8626285       1.159248      0.1314471      5.4834370E-02
  0.8361056       1.196021      0.1236254      5.4132961E-02
  0.8103982       1.233961      0.1150234      5.4132961E-02
  0.7854812       1.273105      0.1047186      5.4132961E-02
  0.7613303       1.313490      9.2226289E-02  5.3480063E-02
  0.7379220       1.355157      7.8965716E-02  5.3480063E-02
  0.7152334       1.398145      7.2897241E-02  5.3480063E-02
  0.6932424       1.442497      6.8105720E-02  5.2850194E-02
  0.6719276       1.488256      6.0092658E-02  5.2850194E-02
  0.6512681       1.535466      5.2944686E-02  5.2850194E-02
  0.6312438       1.584174      5.0545733E-02  5.2351248E-02
  0.6118352       1.634427      5.3439099E-02  5.2351248E-02
  0.5930234       1.686274      5.2311555E-02  5.2351248E-02
  0.5747899       1.739766      4.6420626E-02  5.2351248E-02
  0.5571171       1.794955      4.5056626E-02  5.1862475E-02
  0.5399877       1.851894      3.6979832E-02  5.1862475E-02
  0.5233849       1.910640      2.9662907E-02  5.1862475E-02
  0.5072926       1.971249      2.8889108E-02  5.1862475E-02
  0.4916950       2.033781      2.9854886E-02  5.1437721E-02
  0.4765771       2.098296      3.3696886E-02  5.1437721E-02
  0.4619240       2.164858      3.7559867E-02  5.1437721E-02
  0.4477214       2.233532      3.5741869E-02  5.1437721E-02
  0.4339555       2.304384      3.1942405E-02  5.1026132E-02
  0.4206128       2.377483      2.8866338E-02  5.1026132E-02
  0.4076804       2.452902      2.5936751E-02  5.1026132E-02
  0.3951457       2.530712      2.3976741E-02  5.1026132E-02
  0.3829963       2.610991      2.3564862E-02  5.0570436E-02
  0.3712204       2.693817      2.2882730E-02  5.0570436E-02
  0.3598067       2.779270      2.1341348E-02  5.0570436E-02
  0.3487439       2.867434      2.0769764E-02  5.0570436E-02
  0.3380212       2.958395      2.0225095E-02  5.0570436E-02
  0.3276282       3.052241      1.7190028E-02  5.0570436E-02
  0.3175547       3.149064      1.3728891E-02  4.9937382E-02
  0.3077910       3.248958      1.2969202E-02  4.9937382E-02
  0.2983274       3.352021      1.2128374E-02  4.9937382E-02
  0.2891549       3.458354      1.3255779E-02  4.9937382E-02
  0.2802644       3.568060      1.3948424E-02  4.9937382E-02
  0.2716472       3.681245      1.4038934E-02  4.9937382E-02
  0.2632950       3.798022      1.4174757E-02  4.9266506E-02
  0.2551996       3.918502      1.3327648E-02  4.9266506E-02
  0.2473530       4.042805      1.3849726E-02  4.9266506E-02
  0.2397478       4.171050      1.5778510E-02  4.9266506E-02
  0.2323764       4.303364      1.6051091E-02  4.9266506E-02
  0.2252316       4.439875      1.4509981E-02  4.9266506E-02
  0.2183065       4.580716      1.2488737E-02  4.9266506E-02
  0.2115943       4.726026      1.1388164E-02  4.8629384E-02
  0.2050885       4.875944      1.1371176E-02  4.8629384E-02
  0.1987827       5.030619      1.1364546E-02  4.8629384E-02
  0.1926708       5.190199      1.0607879E-02  4.8629384E-02
  0.1867469       5.354843      9.3374169E-03  4.8629384E-02
  0.1810050       5.524709      8.3172256E-03  4.8629384E-02
  0.1754397       5.699963      7.7527859E-03  4.8629384E-02
  0.1700456       5.880777      7.2661405E-03  4.8629384E-02
  0.1648172       6.067327      6.7767040E-03  4.8629384E-02
  0.1597497       6.259794      6.4119506E-03  4.8019558E-02
  0.1548379       6.458367      6.5167588E-03  4.8019558E-02
  0.1500772       6.663239      6.6249399E-03  4.8019558E-02
  0.1454628       6.874609      6.6307834E-03  4.8019558E-02
  0.1409903       7.092686      6.3025951E-03  4.8019558E-02
  0.1366553       7.317679      5.7039335E-03  4.8019558E-02
  0.1324537       7.549810      4.9414784E-03  4.8019558E-02
  0.1283812       7.789305      4.1460916E-03  4.8019558E-02
  0.1244339       8.036396      3.5191232E-03  4.8019558E-02
  0.1206080       8.291327      3.1261600E-03  4.8019558E-02
  0.1168997       8.554343      2.8671669E-03  4.8019558E-02
  0.1133054       8.825704      2.6141373E-03  4.8019558E-02
  0.1098217       9.105672      2.3128777E-03  4.7289938E-02
  0.1064450       9.394522      2.1820660E-03  4.7289938E-02
  0.1031722       9.692533      2.0025314E-03  4.7289938E-02
  0.1000000       10.00000      1.8119685E-03  4.7289938E-02
