 Calculated PSA for the frequency range: 
 Station:   A61 
 Component: HHZ
  0.1000000      Hz and    50.00000      Hz
         200 frequencies distributed logarithmically
 Oscillator damping is   5.000000     % of critical
  Freq.(Hz)       Period(s)      PSA(cm/s^2)  Smooth PSA(cm/s^2)
   50.00000      1.9999998E-02  0.1846408      0.1846408    
   48.46267      2.0634437E-02  0.1850027      0.1851446    
   46.97261      2.1289000E-02  0.1852864      0.1852977    
   45.52837      2.1964328E-02  0.1856040      0.1856206    
   44.12852      2.2661081E-02  0.1859713      0.1862036    
   42.77172      2.3379933E-02  0.1870356      0.1874301    
   41.45663      2.4121592E-02  0.1892834      0.1893224    
   40.18199      2.4886772E-02  0.1916481      0.1913494    
   38.94653      2.5676232E-02  0.1931166      0.1919823    
   37.74905      2.6490729E-02  0.1911821      0.1903396    
   36.58840      2.7331069E-02  0.1867202      0.1883081    
   35.46343      2.8198060E-02  0.1870220      0.1865673    
   34.37305      2.9092560E-02  0.1859596      0.1865332    
   33.31620      3.0015431E-02  0.1866181      0.1867197    
   32.29184      3.0967580E-02  0.1875815      0.1877803    
   31.29897      3.1949930E-02  0.1891414      0.1903392    
   30.33664      3.2963444E-02  0.1942946      0.1945311    
   29.40389      3.4009106E-02  0.2001573      0.1975861    
   28.49982      3.5087943E-02  0.1983064      0.1992539    
   27.62355      3.6201000E-02  0.1992979      0.2000479    
   26.77422      3.7349366E-02  0.2025393      0.2020884    
   25.95100      3.8534161E-02  0.2044281      0.2061122    
   25.15310      3.9756540E-02  0.2113691      0.2094892    
   24.37972      4.1017693E-02  0.2126704      0.2116796    
   23.63013      4.2318851E-02  0.2126484      0.2108997    
   22.90358      4.3661289E-02  0.2100306      0.2123725    
   22.19938      4.5046311E-02  0.2082494      0.2148225    
   21.51682      4.6475261E-02  0.2182639      0.2165439    
   20.85525      4.7949549E-02  0.2249200      0.2194831    
   20.21403      4.9470600E-02  0.2212554      0.2191902    
   19.59251      5.1039908E-02  0.2247267      0.2177207    
   18.99011      5.2658990E-02  0.2067847      0.2161598    
   18.40623      5.4329433E-02  0.2109167      0.2170031    
   17.84030      5.6052871E-02  0.2171154      0.2198210    
   17.29177      5.7830978E-02  0.2254720      0.2272529    
   16.76011      5.9665482E-02  0.2388161      0.2431927    
   16.24479      6.1558187E-02  0.2439445      0.2520700    
   15.74532      6.3510932E-02  0.2649256      0.2593676    
   15.26120      6.5525629E-02  0.2688828      0.2619185    
   14.79198      6.7604221E-02  0.2703789      0.2669229    
   14.33717      6.9748759E-02  0.2692578      0.2764697    
   13.89635      7.1961328E-02  0.2772240      0.2856397    
   13.46909      7.4244082E-02  0.2738467      0.2930221    
   13.05496      7.6599240E-02  0.3107722      0.3000057    
   12.65356      7.9029121E-02  0.3291157      0.3000528    
   12.26451      8.1536077E-02  0.3205595      0.2997590    
   11.88742      8.4122561E-02  0.3192640      0.3024024    
   11.52192      8.6791091E-02  0.3111285      0.3014503    
   11.16766      8.9544266E-02  0.2585119      0.3034926    
   10.82429      9.2384785E-02  0.2748736      0.3035563    
   10.49148      9.5315412E-02  0.2949941      0.3050568    
   10.16891      9.8338999E-02  0.3031548      0.3168127    
   9.856246      0.1014585      0.3198313      0.3213771    
   9.553200      0.1046770      0.3296888      0.3335529    
   9.259472      0.1079975      0.3340642      0.3424013    
   8.974774      0.1114234      0.3698436      0.3529370    
   8.698831      0.1149580      0.3720357      0.3592218    
   8.431372      0.1186047      0.3567729      0.3638345    
   8.172135      0.1223670      0.3802698      0.3661591    
   7.920870      0.1262487      0.3633577      0.3697326    
   7.677330      0.1302536      0.4003511      0.3758186    
   7.441278      0.1343855      0.4161195      0.3874027    
   7.212485      0.1386485      0.3651714      0.3950911    
   6.990726      0.1430467      0.3585081      0.4082489    
   6.775784      0.1475844      0.3477263      0.4421302    
   6.567452      0.1522661      0.3725709      0.4600880    
   6.365525      0.1570962      0.4070960      0.4738781    
   6.169807      0.1620796      0.4293175      0.4790733    
   5.980107      0.1672211      0.4669389      0.4774337    
   5.796239      0.1725257      0.4950393      0.4819575    
   5.618024      0.1779985      0.5562457      0.4873412    
   5.445289      0.1836450      0.6144111      0.4914219    
   5.277865      0.1894706      0.6588297      0.4905079    
   5.115589      0.1954809      0.6496363      0.4975521    
   4.958302      0.2016820      0.5702090      0.5041149    
   4.805851      0.2080797      0.4782800      0.5068997    
   4.658087      0.2146804      0.4430442      0.5014449    
   4.514867      0.2214905      0.4872295      0.4926680    
   4.376050      0.2285166      0.4930233      0.4775328    
   4.241501      0.2357656      0.4566940      0.4684893    
   4.111090      0.2432445      0.4711293      0.4486094    
   3.984688      0.2509607      0.4481720      0.4346033    
   3.862172      0.2589217      0.4740571      0.4201737    
   3.743424      0.2671351      0.4905344      0.3963134    
   3.628326      0.2756092      0.4885843      0.3818633    
   3.516768      0.2843520      0.5038264      0.3656655    
   3.408639      0.2933722      0.4627911      0.3448845    
   3.303835      0.3026786      0.4362308      0.3268133    
   3.202253      0.3122801      0.3854359      0.3148257    
   3.103795      0.3221862      0.3083532      0.3007776    
   3.008364      0.3324066      0.3081579      0.2874676    
   2.915867      0.3429512      0.3033407      0.2808119    
   2.826214      0.3538303      0.2870387      0.2684330    
   2.739317      0.3650545      0.2726295      0.2576782    
   2.655093      0.3766347      0.2749876      0.2531134    
   2.573457      0.3885823      0.2759869      0.2441818    
   2.494333      0.4009089      0.2570726      0.2386546    
   2.417640      0.4136265      0.2392411      0.2292882    
   2.343306      0.4267475      0.2232565      0.2211232    
   2.271257      0.4402848      0.2115188      0.2155115    
   2.201424      0.4542515      0.1804993      0.2041693    
   2.133738      0.4686611      0.1930757      0.1996151    
   2.068133      0.4835280      0.1799011      0.1875322    
   2.004544      0.4988664      0.1602634      0.1739543    
   1.942912      0.5146915      0.1521791      0.1653504    
   1.883174      0.5310184      0.1423608      0.1528366    
   1.825273      0.5478634      0.1205980      0.1420485    
   1.769152      0.5652427      0.1285288      0.1289377    
   1.714756      0.5831733      0.1295080      0.1196194    
   1.662033      0.6016726      0.1352696      0.1066216    
   1.610931      0.6207589      0.1449642      9.5209308E-02
   1.561401      0.6404505      0.1594851      8.9893013E-02
   1.513393      0.6607669      0.1626720      8.9893013E-02
   1.466861      0.6817277      0.1625133      8.7890580E-02
   1.421760      0.7033534      0.1661617      8.7890580E-02
   1.378046      0.7256652      0.1526593      8.5895672E-02
   1.335676      0.7486846      0.1507767      8.5895672E-02
   1.294608      0.7724344      0.1404322      8.4015831E-02
   1.254804      0.7969375      0.1652555      8.4015831E-02
   1.216223      0.8222179      0.1718662      8.2236454E-02
   1.178828      0.8483002      0.1563352      8.2236454E-02
   1.142583      0.8752099      0.1719527      8.0400728E-02
   1.107453      0.9029732      0.1771603      8.0400728E-02
   1.073402      0.9316174      0.1621824      7.8520097E-02
   1.040399      0.9611701      0.1642199      7.8520097E-02
   1.008410      0.9916603      0.1574227      7.8520097E-02
  0.9774047       1.023118      0.1477385      7.6786570E-02
  0.9473529       1.055573      0.1673467      7.6786570E-02
  0.9182250       1.089058      0.1701715      7.6786570E-02
  0.8899927       1.123605      0.1610466      7.5193882E-02
  0.8626285       1.159248      0.1503810      7.5193882E-02
  0.8361056       1.196021      0.1387532      7.3727913E-02
  0.8103982       1.233961      0.1264954      7.3727913E-02
  0.7854812       1.273105      0.1119253      7.3727913E-02
  0.7613303       1.313490      9.9936374E-02  7.2350003E-02
  0.7379220       1.355157      0.1072130      7.2350003E-02
  0.7152334       1.398145      0.1132717      7.2350003E-02
  0.6932424       1.442497      0.1175686      7.1257584E-02
  0.6719276       1.488256      0.1202641      7.1257584E-02
  0.6512681       1.535466      0.1196371      7.1257584E-02
  0.6312438       1.584174      0.1111948      7.0014544E-02
  0.6118352       1.634427      9.7235411E-02  7.0014544E-02
  0.5930234       1.686274      8.6861230E-02  7.0014544E-02
  0.5747899       1.739766      7.9249300E-02  7.0014544E-02
  0.5571171       1.794955      7.1007580E-02  6.8881691E-02
  0.5399877       1.851894      6.1570410E-02  6.8881691E-02
  0.5233849       1.910640      5.0688095E-02  6.8881691E-02
  0.5072926       1.971249      4.1324109E-02  6.8881691E-02
  0.4916950       2.033781      3.6419325E-02  6.7929797E-02
  0.4765771       2.098296      3.3012543E-02  6.7929797E-02
  0.4619240       2.164858      3.0256901E-02  6.7929797E-02
  0.4477214       2.233532      2.8272590E-02  6.7929797E-02
  0.4339555       2.304384      2.6769014E-02  6.7042962E-02
  0.4206128       2.377483      2.5884595E-02  6.7042962E-02
  0.4076804       2.452902      2.3141613E-02  6.7042962E-02
  0.3951457       2.530712      1.9595753E-02  6.7042962E-02
  0.3829963       2.610991      1.9688727E-02  6.6241711E-02
  0.3712204       2.693817      1.9375129E-02  6.6241711E-02
  0.3598067       2.779270      1.7927794E-02  6.6241711E-02
  0.3487439       2.867434      1.6651828E-02  6.6241711E-02
  0.3380212       2.958395      1.7062256E-02  6.6241711E-02
  0.3276282       3.052241      1.7206989E-02  6.6241711E-02
  0.3175547       3.149064      2.0073270E-02  6.5657236E-02
  0.3077910       3.248958      2.0479230E-02  6.5657236E-02
  0.2983274       3.352021      1.8219579E-02  6.5657236E-02
  0.2891549       3.458354      1.4306501E-02  6.5657236E-02
  0.2802644       3.568060      1.2604800E-02  6.5657236E-02
  0.2716472       3.681245      1.1924382E-02  6.5657236E-02
  0.2632950       3.798022      1.1584834E-02  6.4973854E-02
  0.2551996       3.918502      1.1163123E-02  6.4973854E-02
  0.2473530       4.042805      1.2044862E-02  6.4973854E-02
  0.2397478       4.171050      1.3033497E-02  6.4973854E-02
  0.2323764       4.303364      1.3410063E-02  6.4973854E-02
  0.2252316       4.439875      1.4642674E-02  6.4973854E-02
  0.2183065       4.580716      1.5992837E-02  6.4973854E-02
  0.2115943       4.726026      1.4909447E-02  6.4264685E-02
  0.2050885       4.875944      1.4286999E-02  6.4264685E-02
  0.1987827       5.030619      1.3721848E-02  6.4264685E-02
  0.1926708       5.190199      1.3057540E-02  6.4264685E-02
  0.1867469       5.354843      1.2418834E-02  6.4264685E-02
  0.1810050       5.524709      1.1720784E-02  6.4264685E-02
  0.1754397       5.699963      1.0609712E-02  6.4264685E-02
  0.1700456       5.880777      9.1230161E-03  6.4264685E-02
  0.1648172       6.067327      7.7536358E-03  6.4264685E-02
  0.1597497       6.259794      6.6003362E-03  6.3475743E-02
  0.1548379       6.458367      5.8724848E-03  6.3475743E-02
  0.1500772       6.663239      5.6982446E-03  6.3475743E-02
  0.1454628       6.874609      5.7153120E-03  6.3475743E-02
  0.1409903       7.092686      5.5910349E-03  6.3475743E-02
  0.1366553       7.317679      5.3410521E-03  6.3475743E-02
  0.1324537       7.549810      4.9890005E-03  6.3475743E-02
  0.1283812       7.789305      4.5664604E-03  6.3475743E-02
  0.1244339       8.036396      4.0335571E-03  6.3475743E-02
  0.1206080       8.291327      3.6585936E-03  6.3475743E-02
  0.1168997       8.554343      3.3216192E-03  6.3475743E-02
  0.1133054       8.825704      2.9549494E-03  6.3475743E-02
  0.1098217       9.105672      2.6217820E-03  6.2560141E-02
  0.1064450       9.394522      2.3654834E-03  6.2560141E-02
  0.1031722       9.692533      2.1776734E-03  6.2560141E-02
  0.1000000       10.00000      2.0230378E-03  6.2560141E-02
