 Calculated PSA for the frequency range: 
 Station:   BRCO
 Component: HHZ
  0.1000000      Hz and    50.00000      Hz
         200 frequencies distributed logarithmically
 Oscillator damping is   5.000000     % of critical
  Freq.(Hz)       Period(s)      PSA(cm/s^2)  Smooth PSA(cm/s^2)
   50.00000      1.9999998E-02  0.5369264      0.5369264    
   48.46267      2.0634437E-02  0.5374911      0.5377810    
   46.97261      2.1289000E-02  0.5380708      0.5380898    
   45.52837      2.1964328E-02  0.5387076      0.5387732    
   44.12852      2.2661081E-02  0.5395412      0.5395855    
   42.77172      2.3379933E-02  0.5405076      0.5406537    
   41.45663      2.4121592E-02  0.5419124      0.5421268    
   40.18199      2.4886772E-02  0.5439606      0.5432051    
   38.94653      2.5676232E-02  0.5437424      0.5431647    
   37.74905      2.6490729E-02  0.5417910      0.5417472    
   36.58840      2.7331069E-02  0.5397082      0.5398313    
   35.46343      2.8198060E-02  0.5379947      0.5396038    
   34.37305      2.9092560E-02  0.5411084      0.5413320    
   33.31620      3.0015431E-02  0.5448930      0.5444298    
   32.29184      3.0967580E-02  0.5472881      0.5470448    
   31.29897      3.1949930E-02  0.5489533      0.5500897    
   30.33664      3.2963444E-02  0.5540278      0.5544733    
   29.40389      3.4009106E-02  0.5604389      0.5582286    
   28.49982      3.5087943E-02  0.5602189      0.5605161    
   27.62355      3.6201000E-02  0.5608904      0.5598092    
   26.77422      3.7349366E-02  0.5583183      0.5574605    
   25.95100      3.8534161E-02  0.5531727      0.5557129    
   25.15310      3.9756540E-02  0.5556477      0.5572888    
   24.37972      4.1017693E-02  0.5630458      0.5660063    
   23.63013      4.2318851E-02  0.5754607      0.5604072    
   22.90358      4.3661289E-02  0.5698711      0.5585176    
   22.19938      4.5046311E-02  0.5332512      0.5583300    
   21.51682      4.6475261E-02  0.5509594      0.5597910    
   20.85525      4.7949549E-02  0.5621076      0.5694716    
   20.21403      4.9470600E-02  0.5827658      0.5926221    
   19.59251      5.1039908E-02  0.6182739      0.6128943    
   18.99011      5.2658990E-02  0.6490038      0.6267609    
   18.40623      5.4329433E-02  0.6523203      0.6335077    
   17.84030      5.6052871E-02  0.6314408      0.6317183    
   17.29177      5.7830978E-02  0.6164998      0.6240507    
   16.76011      5.9665482E-02  0.6093272      0.6218037    
   16.24479      6.1558187E-02  0.6106653      0.6289241    
   15.74532      6.3510932E-02  0.6247722      0.6435263    
   15.26120      6.5525629E-02  0.6381168      0.6577248    
   14.79198      6.7604221E-02  0.6741628      0.6778230    
   14.33717      6.9748759E-02  0.7041128      0.7000065    
   13.89635      7.1961328E-02  0.7429162      0.7228901    
   13.46909      7.4244082E-02  0.7500147      0.7455581    
   13.05496      7.6599240E-02  0.7659507      0.7764902    
   12.65356      7.9029121E-02  0.7849572      0.8063051    
   12.26451      8.1536077E-02  0.7967920      0.8206381    
   11.88742      8.4122561E-02  0.8906876      0.8451514    
   11.52192      8.6791091E-02  0.8655660      0.8703588    
   11.16766      8.9544266E-02  0.8535565      0.8876087    
   10.82429      9.2384785E-02  0.8575798      0.9143659    
   10.49148      9.5315412E-02  0.9461212      0.9412673    
   10.16891      9.8338999E-02  0.9676099      0.9719876    
   9.856246      0.1014585       1.025608       1.004485    
   9.553200      0.1046770       1.025773       1.037233    
   9.259472      0.1079975       1.038903       1.074775    
   8.974774      0.1114234       1.060821       1.099458    
   8.698831      0.1149580       1.078338       1.135728    
   8.431372      0.1186047       1.190539       1.181336    
   8.172135      0.1223670       1.181036       1.240618    
   7.920870      0.1262487       1.233005       1.307686    
   7.677330      0.1302536       1.192950       1.378887    
   7.441278      0.1343855       1.271877       1.469351    
   7.212485      0.1386485       1.362277       1.491259    
   6.990726      0.1430467       1.514904       1.545227    
   6.775784      0.1475844       1.736990       1.647376    
   6.567452      0.1522661       1.830591       1.739662    
   6.365525      0.1570962       1.893313       1.841968    
   6.169807      0.1620796       1.819468       1.962102    
   5.980107      0.1672211       1.796277       2.090221    
   5.796239      0.1725257       1.776061       2.176798    
   5.618024      0.1779985       1.833888       2.230372    
   5.445289      0.1836450       1.961843       2.258678    
   5.277865      0.1894706       2.306160       2.235110    
   5.115589      0.1954809       2.565323       2.199453    
   4.958302      0.2016820       2.767597       2.192812    
   4.805851      0.2080797       2.994962       2.186473    
   4.658087      0.2146804       3.109022       2.152161    
   4.514867      0.2214905       2.993208       2.121271    
   4.376050      0.2285166       2.743674       2.067091    
   4.241501      0.2357656       2.273049       2.045570    
   4.111090      0.2432445       2.215719       1.972906    
   3.984688      0.2509607       2.039055       1.883759    
   3.862172      0.2589217       1.810889       1.840861    
   3.743424      0.2671351       1.673868       1.741773    
   3.628326      0.2756092       1.585086       1.663462    
   3.516768      0.2843520       1.697770       1.595845    
   3.408639      0.2933722       1.766538       1.494359    
   3.303835      0.3026786       1.712656       1.386492    
   3.202253      0.3122801       1.572741       1.327438    
   3.103795      0.3221862       1.472576       1.215982    
   3.008364      0.3324066       1.365777       1.114734    
   2.915867      0.3429512       1.305631       1.074975    
   2.826214      0.3538303       1.281072      0.9902264    
   2.739317      0.3650545       1.147444      0.9203445    
   2.655093      0.3766347      0.9880875      0.8903049    
   2.573457      0.3885823      0.8085611      0.8294688    
   2.494333      0.4009089      0.8194217      0.7922789    
   2.417640      0.4136265      0.8464950      0.7319315    
   2.343306      0.4267475      0.7611879      0.6894256    
   2.271257      0.4402848      0.7104579      0.6595464    
   2.201424      0.4542515      0.6078695      0.6112723    
   2.133738      0.4686611      0.6046550      0.5860430    
   2.068133      0.4835280      0.6044433      0.5384668    
   2.004544      0.4988664      0.6631086      0.4919451    
   1.942912      0.5146915      0.6557561      0.4669966    
   1.883174      0.5310184      0.5957959      0.4245070    
   1.825273      0.5478634      0.5496234      0.3937000    
   1.769152      0.5652427      0.4694760      0.3498916    
   1.714756      0.5831733      0.3547474      0.3236962    
   1.662033      0.6016726      0.3222101      0.2814890    
   1.610931      0.6207589      0.3247463      0.2508129    
   1.561401      0.6404505      0.3200077      0.2307231    
   1.513393      0.6607669      0.3454883      0.2307231    
   1.466861      0.6817277      0.3819174      0.2203098    
   1.421760      0.7033534      0.3764864      0.2203098    
   1.378046      0.7256652      0.3218489      0.2102605    
   1.335676      0.7486846      0.2763419      0.2102605    
   1.294608      0.7724344      0.2678161      0.2002529    
   1.254804      0.7969375      0.2700621      0.2002529    
   1.216223      0.8222179      0.3069913      0.1913172    
   1.178828      0.8483002      0.3020701      0.1913172    
   1.142583      0.8752099      0.2714329      0.1837289    
   1.107453      0.9029732      0.2794772      0.1837289    
   1.073402      0.9316174      0.2897336      0.1777209    
   1.040399      0.9611701      0.2701582      0.1777209    
   1.008410      0.9916603      0.2549734      0.1777209    
  0.9774047       1.023118      0.2578962      0.1714908    
  0.9473529       1.055573      0.2653013      0.1714908    
  0.9182250       1.089058      0.2640827      0.1714908    
  0.8899927       1.123605      0.2603112      0.1648731    
  0.8626285       1.159248      0.2422311      0.1648731    
  0.8361056       1.196021      0.2072495      0.1589690    
  0.8103982       1.233961      0.1785153      0.1589690    
  0.7854812       1.273105      0.1586733      0.1589690    
  0.7613303       1.313490      0.1469410      0.1534541    
  0.7379220       1.355157      0.1446124      0.1534541    
  0.7152334       1.398145      0.1428798      0.1534541    
  0.6932424       1.442497      0.1417870      0.1488640    
  0.6719276       1.488256      0.1400392      0.1488640    
  0.6512681       1.535466      0.1391523      0.1488640    
  0.6312438       1.584174      0.1400964      0.1442131    
  0.6118352       1.634427      0.1392306      0.1442131    
  0.5930234       1.686274      0.1330700      0.1442131    
  0.5747899       1.739766      0.1238197      0.1442131    
  0.5571171       1.794955      0.1142792      0.1394685    
  0.5399877       1.851894      0.1094027      0.1394685    
  0.5233849       1.910640      0.1042682      0.1394685    
  0.5072926       1.971249      0.1008690      0.1394685    
  0.4916950       2.033781      9.4775431E-02  0.1340139    
  0.4765771       2.098296      8.5459858E-02  0.1340139    
  0.4619240       2.164858      7.3374219E-02  0.1340139    
  0.4477214       2.233532      6.7569286E-02  0.1340139    
  0.4339555       2.304384      6.3566543E-02  0.1285218    
  0.4206128       2.377483      6.0309004E-02  0.1285218    
  0.4076804       2.452902      5.7561312E-02  0.1285218    
  0.3951457       2.530712      5.4311637E-02  0.1285218    
  0.3829963       2.610991      4.9515549E-02  0.1235509    
  0.3712204       2.693817      4.4587061E-02  0.1235509    
  0.3598067       2.779270      4.0592324E-02  0.1235509    
  0.3487439       2.867434      3.7184808E-02  0.1235509    
  0.3380212       2.958395      3.3343393E-02  0.1235509    
  0.3276282       3.052241      3.1294867E-02  0.1235509    
  0.3175547       3.149064      3.0068545E-02  0.1189694    
  0.3077910       3.248958      2.8799102E-02  0.1189694    
  0.2983274       3.352021      2.9890448E-02  0.1189694    
  0.2891549       3.458354      3.0370964E-02  0.1189694    
  0.2802644       3.568060      2.9279966E-02  0.1189694    
  0.2716472       3.681245      2.8078489E-02  0.1189694    
  0.2632950       3.798022      2.6017083E-02  0.1151596    
  0.2551996       3.918502      2.5133383E-02  0.1151596    
  0.2473530       4.042805      2.5284911E-02  0.1151596    
  0.2397478       4.171050      2.5394669E-02  0.1151596    
  0.2323764       4.303364      2.4850547E-02  0.1151596    
  0.2252316       4.439875      2.2676827E-02  0.1151596    
  0.2183065       4.580716      2.0879148E-02  0.1151596    
  0.2115943       4.726026      1.9621588E-02  0.1125267    
  0.2050885       4.875944      1.9219823E-02  0.1125267    
  0.1987827       5.030619      1.9340603E-02  0.1125267    
  0.1926708       5.190199      1.9341130E-02  0.1125267    
  0.1867469       5.354843      1.8722268E-02  0.1125267    
  0.1810050       5.524709      1.7183578E-02  0.1125267    
  0.1754397       5.699963      1.4828296E-02  0.1125267    
  0.1700456       5.880777      1.2780354E-02  0.1125267    
  0.1648172       6.067327      1.1585983E-02  0.1125267    
  0.1597497       6.259794      1.1033515E-02  0.1101969    
  0.1548379       6.458367      1.0619905E-02  0.1101969    
  0.1500772       6.663239      1.0040234E-02  0.1101969    
  0.1454628       6.874609      9.3138088E-03  0.1101969    
  0.1409903       7.092686      8.6034779E-03  0.1101969    
  0.1366553       7.317679      7.9751331E-03  0.1101969    
  0.1324537       7.549810      7.3220930E-03  0.1101969    
  0.1283812       7.789305      7.0174034E-03  0.1101969    
  0.1244339       8.036396      6.7302310E-03  0.1101969    
  0.1206080       8.291327      6.2279454E-03  0.1101969    
  0.1168997       8.554343      5.6308717E-03  0.1101969    
  0.1133054       8.825704      5.0165877E-03  0.1101969    
  0.1098217       9.105672      4.4335872E-03  0.1077863    
  0.1064450       9.394522      3.9280416E-03  0.1077863    
  0.1031722       9.692533      3.5313487E-03  0.1077863    
  0.1000000       10.00000      3.2465658E-03  0.1077863    
