 Calculated PSA for the frequency range: 
 Station:   A61 
 Component: HHE
  0.1000000      Hz and    50.00000      Hz
         200 frequencies distributed logarithmically
 Oscillator damping is   5.000000     % of critical
  Freq.(Hz)       Period(s)      PSA(cm/s^2)  Smooth PSA(cm/s^2)
   50.00000      1.9999998E-02  0.2789042      0.2789042    
   48.46267      2.0634437E-02  0.2794146      0.2796739    
   46.97261      2.1289000E-02  0.2799333      0.2797365    
   45.52837      2.1964328E-02  0.2798617      0.2792498    
   44.12852      2.2661081E-02  0.2779544      0.2775773    
   42.77172      2.3379933E-02  0.2749156      0.2754983    
   41.45663      2.4121592E-02  0.2736250      0.2745506    
   40.18199      2.4886772E-02  0.2751111      0.2749165    
   38.94653      2.5676232E-02  0.2760134      0.2761292    
   37.74905      2.6490729E-02  0.2772632      0.2777752    
   36.58840      2.7331069E-02  0.2800491      0.2794885    
   35.46343      2.8198060E-02  0.2811531      0.2820886    
   34.37305      2.9092560E-02  0.2850636      0.2835150    
   33.31620      3.0015431E-02  0.2843283      0.2827374    
   32.29184      3.0967580E-02  0.2788203      0.2801029    
   31.29897      3.1949930E-02  0.2771599      0.2777837    
   30.33664      3.2963444E-02  0.2773708      0.2771861    
   29.40389      3.4009106E-02  0.2770275      0.2779707    
   28.49982      3.5087943E-02  0.2795138      0.2821534    
   27.62355      3.6201000E-02  0.2899188      0.2912393    
   26.77422      3.7349366E-02  0.3042853      0.2995149    
   25.95100      3.8534161E-02  0.3043404      0.3038941    
   25.15310      3.9756540E-02  0.3030566      0.3060823    
   24.37972      4.1017693E-02  0.3108498      0.3081111    
   23.63013      4.2318851E-02  0.3125739      0.3104482    
   22.90358      4.3661289E-02  0.3059642      0.3201686    
   22.19938      4.5046311E-02  0.3124048      0.3358161    
   21.51682      4.6475261E-02  0.3590504      0.3527624    
   20.85525      4.7949549E-02  0.3890873      0.3701993    
   20.21403      4.9470600E-02  0.3973053      0.3831032    
   19.59251      5.1039908E-02  0.3931485      0.3902750    
   18.99011      5.2658990E-02  0.3769247      0.3882839    
   18.40623      5.4329433E-02  0.3949094      0.3913840    
   17.84030      5.6052871E-02  0.3791318      0.3923156    
   17.29177      5.7830978E-02  0.4128056      0.3998415    
   16.76011      5.9665482E-02  0.3978065      0.4321225    
   16.24479      6.1558187E-02  0.4145544      0.4616434    
   15.74532      6.3510932E-02  0.4651274      0.4894739    
   15.26120      6.5525629E-02  0.5233093      0.5025189    
   14.79198      6.7604221E-02  0.5562571      0.5419753    
   14.33717      6.9748759E-02  0.5797889      0.5896515    
   13.89635      7.1961328E-02  0.5807890      0.6305914    
   13.46909      7.4244082E-02  0.6740012      0.6629751    
   13.05496      7.6599240E-02  0.7482876      0.7013730    
   12.65356      7.9029121E-02  0.7517068      0.7296213    
   12.26451      8.1536077E-02  0.7499954      0.7395093    
   11.88742      8.4122561E-02  0.8250420      0.7395446    
   11.52192      8.6791091E-02  0.7994987      0.7237772    
   11.16766      8.9544266E-02  0.7076499      0.7173789    
   10.82429      9.2384785E-02  0.6598933      0.7068942    
   10.49148      9.5315412E-02  0.6742823      0.6991787    
   10.16891      9.8338999E-02  0.6221484      0.6873171    
   9.856246      0.1014585      0.6661923      0.6775250    
   9.553200      0.1046770      0.6573459      0.6725845    
   9.259472      0.1079975      0.6805561      0.6802243    
   8.974774      0.1114234      0.6830912      0.6916115    
   8.698831      0.1149580      0.7225134      0.6803154    
   8.431372      0.1186047      0.7015779      0.6733716    
   8.172135      0.1223670      0.6582443      0.6633393    
   7.920870      0.1262487      0.7362920      0.6510694    
   7.677330      0.1302536      0.7881534      0.6419846    
   7.441278      0.1343855      0.6983705      0.6416373    
   7.212485      0.1386485      0.5492999      0.6461743    
   6.990726      0.1430467      0.5388227      0.6479124    
   6.775784      0.1475844      0.5458050      0.6671901    
   6.567452      0.1522661      0.5101071      0.6861903    
   6.365525      0.1570962      0.5715386      0.7090799    
   6.169807      0.1620796      0.6257653      0.7341641    
   5.980107      0.1672211      0.6947951      0.7838553    
   5.796239      0.1725257      0.7051548      0.8042456    
   5.618024      0.1779985      0.7468480      0.8306828    
   5.445289      0.1836450      0.7913539      0.8661101    
   5.277865      0.1894706      0.8473017      0.8795611    
   5.115589      0.1954809      0.9432462      0.9091018    
   4.958302      0.2016820       1.079636      0.9307698    
   4.805851      0.2080797       1.164415      0.9506018    
   4.658087      0.2146804       1.178029      0.9704143    
   4.514867      0.2214905       1.135052      0.9599874    
   4.376050      0.2285166       1.045006      0.9450787    
   4.241501      0.2357656      0.9987300      0.9389454    
   4.111090      0.2432445      0.9760705      0.9106376    
   3.984688      0.2509607       1.031130      0.8741310    
   3.862172      0.2589217       1.121676      0.8574645    
   3.743424      0.2671351       1.074301      0.8160017    
   3.628326      0.2756092      0.9418828      0.7764893    
   3.516768      0.2843520      0.9434651      0.7518985    
   3.408639      0.2933722      0.9681785      0.7050331    
   3.303835      0.3026786       1.059532      0.6586862    
   3.202253      0.3122801      0.9328983      0.6329775    
   3.103795      0.3221862      0.7410210      0.5946179    
   3.008364      0.3324066      0.6831407      0.5611480    
   2.915867      0.3429512      0.6287422      0.5471905    
   2.826214      0.3538303      0.5640894      0.5189290    
   2.739317      0.3650545      0.5043274      0.4903888    
   2.655093      0.3766347      0.5020779      0.4773400    
   2.573457      0.3885823      0.4739107      0.4530044    
   2.494333      0.4009089      0.3981920      0.4388383    
   2.417640      0.4136265      0.3580244      0.4122218    
   2.343306      0.4267475      0.3217613      0.3868000    
   2.271257      0.4402848      0.2635103      0.3726198    
   2.201424      0.4542515      0.2415151      0.3450883    
   2.133738      0.4686611      0.2446302      0.3331756    
   2.068133      0.4835280      0.2301115      0.3082778    
   2.004544      0.4988664      0.2061456      0.2843114    
   1.942912      0.5146915      0.2194282      0.2713133    
   1.883174      0.5310184      0.2224368      0.2483933    
   1.825273      0.5478634      0.2102554      0.2307569    
   1.769152      0.5652427      0.2233749      0.2043019    
   1.714756      0.5831733      0.2456148      0.1887275    
   1.662033      0.6016726      0.2514879      0.1641697    
   1.610931      0.6207589      0.2552886      0.1461986    
   1.561401      0.6404505      0.2659716      0.1355423    
   1.513393      0.6607669      0.2922526      0.1355423    
   1.466861      0.6817277      0.2961372      0.1305185    
   1.421760      0.7033534      0.3097299      0.1305185    
   1.378046      0.7256652      0.2830869      0.1259053    
   1.335676      0.7486846      0.2351733      0.1259053    
   1.294608      0.7724344      0.2033192      0.1218101    
   1.254804      0.7969375      0.2012698      0.1218101    
   1.216223      0.8222179      0.2233195      0.1182015    
   1.178828      0.8483002      0.2224588      0.1182015    
   1.142583      0.8752099      0.2205115      0.1145455    
   1.107453      0.9029732      0.2108051      0.1145455    
   1.073402      0.9316174      0.2175996      0.1110901    
   1.040399      0.9611701      0.2429103      0.1110901    
   1.008410      0.9916603      0.2610284      0.1110901    
  0.9774047       1.023118      0.2581045      0.1083027    
  0.9473529       1.055573      0.2208337      0.1083027    
  0.9182250       1.089058      0.1788916      0.1083027    
  0.8899927       1.123605      0.1623825      0.1058544    
  0.8626285       1.159248      0.1512669      0.1058544    
  0.8361056       1.196021      0.1455768      0.1037167    
  0.8103982       1.233961      0.1445931      0.1037167    
  0.7854812       1.273105      0.1470415      0.1037167    
  0.7613303       1.313490      0.1283368      0.1021188    
  0.7379220       1.355157      0.1142739      0.1021188    
  0.7152334       1.398145      0.1177628      0.1021188    
  0.6932424       1.442497      0.1210333      0.1007107    
  0.6719276       1.488256      0.1228154      0.1007107    
  0.6512681       1.535466      0.1243002      0.1007107    
  0.6312438       1.584174      0.1237045      9.9242173E-02
  0.6118352       1.634427      0.1209522      9.9242173E-02
  0.5930234       1.686274      0.1164580      9.9242173E-02
  0.5747899       1.739766      0.1113274      9.9242173E-02
  0.5571171       1.794955      0.1051396      9.7893007E-02
  0.5399877       1.851894      9.7273372E-02  9.7893007E-02
  0.5233849       1.910640      9.2624761E-02  9.7893007E-02
  0.5072926       1.971249      8.7342888E-02  9.7893007E-02
  0.4916950       2.033781      7.9286382E-02  9.6765377E-02
  0.4765771       2.098296      7.0008792E-02  9.6765377E-02
  0.4619240       2.164858      6.6430904E-02  9.6765377E-02
  0.4477214       2.233532      6.3649185E-02  9.6765377E-02
  0.4339555       2.304384      5.9653908E-02  9.5474191E-02
  0.4206128       2.377483      5.3600561E-02  9.5474191E-02
  0.4076804       2.452902      4.6655033E-02  9.5474191E-02
  0.3951457       2.530712      4.0725846E-02  9.5474191E-02
  0.3829963       2.610991      3.6179736E-02  9.4123527E-02
  0.3712204       2.693817      3.2082625E-02  9.4123527E-02
  0.3598067       2.779270      2.8537037E-02  9.4123527E-02
  0.3487439       2.867434      2.5941065E-02  9.4123527E-02
  0.3380212       2.958395      2.3586128E-02  9.4123527E-02
  0.3276282       3.052241      2.1301204E-02  9.4123527E-02
  0.3175547       3.149064      1.9512951E-02  9.2874795E-02
  0.3077910       3.248958      1.8030118E-02  9.2874795E-02
  0.2983274       3.352021      1.6767910E-02  9.2874795E-02
  0.2891549       3.458354      1.5541484E-02  9.2874795E-02
  0.2802644       3.568060      1.4167820E-02  9.2874795E-02
  0.2716472       3.681245      1.2900806E-02  9.2874795E-02
  0.2632950       3.798022      1.1894216E-02  9.1456309E-02
  0.2551996       3.918502      1.1411337E-02  9.1456309E-02
  0.2473530       4.042805      1.0962720E-02  9.1456309E-02
  0.2397478       4.171050      1.0293784E-02  9.1456309E-02
  0.2323764       4.303364      9.5296307E-03  9.1456309E-02
  0.2252316       4.439875      9.6728187E-03  9.1456309E-02
  0.2183065       4.580716      1.1368864E-02  9.1456309E-02
  0.2115943       4.726026      1.2990069E-02  8.9762256E-02
  0.2050885       4.875944      1.4804112E-02  8.9762256E-02
  0.1987827       5.030619      1.4984588E-02  8.9762256E-02
  0.1926708       5.190199      1.3641202E-02  8.9762256E-02
  0.1867469       5.354843      1.2697982E-02  8.9762256E-02
  0.1810050       5.524709      1.1569642E-02  8.9762256E-02
  0.1754397       5.699963      1.0670891E-02  8.9762256E-02
  0.1700456       5.880777      9.6842553E-03  8.9762256E-02
  0.1648172       6.067327      8.6932424E-03  8.9762256E-02
  0.1597497       6.259794      7.3228939E-03  8.7965310E-02
  0.1548379       6.458367      5.8013727E-03  8.7965310E-02
  0.1500772       6.663239      4.9746977E-03  8.7965310E-02
  0.1454628       6.874609      4.3041250E-03  8.7965310E-02
  0.1409903       7.092686      3.6467921E-03  8.7965310E-02
  0.1366553       7.317679      3.3120129E-03  8.7965310E-02
  0.1324537       7.549810      3.1077184E-03  8.7965310E-02
  0.1283812       7.789305      3.0382294E-03  8.7965310E-02
  0.1244339       8.036396      3.1350399E-03  8.7965310E-02
  0.1206080       8.291327      3.0803413E-03  8.7965310E-02
  0.1168997       8.554343      2.8428650E-03  8.7965310E-02
  0.1133054       8.825704      2.5534525E-03  8.7965310E-02
  0.1098217       9.105672      2.2059411E-03  8.6085275E-02
  0.1064450       9.394522      1.8728959E-03  8.6085275E-02
  0.1031722       9.692533      1.7688129E-03  8.6085275E-02
  0.1000000       10.00000      1.5842803E-03  8.6085275E-02
