 Calculated PSA for the frequency range: 
 Station:   DAQ 
 Component: EHZ
  0.1000000      Hz and    50.00000      Hz
         200 frequencies distributed logarithmically
 Oscillator damping is   5.000000     % of critical
  Freq.(Hz)       Period(s)      PSA(cm/s^2)  Smooth PSA(cm/s^2)
   50.00000      1.9999998E-02  0.3265402      0.3265402    
   48.46267      2.0634437E-02  0.3270495      0.3273134    
   46.97261      2.1289000E-02  0.3275774      0.3275947    
   45.52837      2.1964328E-02  0.3281572      0.3282931    
   44.12852      2.2661081E-02  0.3291447      0.3292191    
   42.77172      2.3379933E-02  0.3303554      0.3302683    
   41.45663      2.4121592E-02  0.3313047      0.3326307    
   40.18199      2.4886772E-02  0.3362320      0.3373330    
   38.94653      2.5676232E-02  0.3444623      0.3421533    
   37.74905      2.6490729E-02  0.3457656      0.3440329    
   36.58840      2.7331069E-02  0.3418708      0.3445932    
   35.46343      2.8198060E-02  0.3461432      0.3488796    
   34.37305      2.9092560E-02  0.3586247      0.3566794    
   33.31620      3.0015431E-02  0.3652703      0.3601802    
   32.29184      3.0967580E-02  0.3566455      0.3565216    
   31.29897      3.1949930E-02  0.3476490      0.3538713    
   30.33664      3.2963444E-02  0.3573196      0.3589477    
   29.40389      3.4009106E-02  0.3718745      0.3695649    
   28.49982      3.5087943E-02  0.3795007      0.3788771    
   27.62355      3.6201000E-02  0.3852560      0.3882011    
   26.77422      3.7349366E-02  0.3998468      0.3996638    
   25.95100      3.8534161E-02  0.4138887      0.4086436    
   25.15310      3.9756540E-02  0.4121953      0.4126330    
   24.37972      4.1017693E-02  0.4118150      0.4213085    
   23.63013      4.2318851E-02  0.4186504      0.4317549    
   22.90358      4.3661289E-02  0.4425732      0.4322438    
   22.19938      4.5046311E-02  0.4539810      0.4342446    
   21.51682      4.6475261E-02  0.4341992      0.4362953    
   20.85525      4.7949549E-02  0.4218189      0.4348524    
   20.21403      4.9470600E-02  0.4289038      0.4329031    
   19.59251      5.1039908E-02  0.4353590      0.4329271    
   18.99011      5.2658990E-02  0.4442343      0.4277653    
   18.40623      5.4329433E-02  0.4343194      0.4178221    
   17.84030      5.6052871E-02  0.3960099      0.4090020    
   17.29177      5.7830978E-02  0.3791877      0.4053957    
   16.76011      5.9665482E-02  0.3912584      0.4074317    
   16.24479      6.1558187E-02  0.4262027      0.4088406    
   15.74532      6.3510932E-02  0.4285596      0.4182817    
   15.26120      6.5525629E-02  0.4233717      0.4291236    
   14.79198      6.7604221E-02  0.4044632      0.4427250    
   14.33717      6.9748759E-02  0.4358343      0.4549088    
   13.89635      7.1961328E-02  0.4941746      0.4708922    
   13.46909      7.4244082E-02  0.4864691      0.4877034    
   13.05496      7.6599240E-02  0.5114891      0.5107471    
   12.65356      7.9029121E-02  0.5404431      0.5484625    
   12.26451      8.1536077E-02  0.5410501      0.5609989    
   11.88742      8.4122561E-02  0.5657693      0.5660817    
   11.52192      8.6791091E-02  0.6196198      0.5639634    
   11.16766      8.9544266E-02  0.6286844      0.5602870    
   10.82429      9.2384785E-02  0.5944664      0.5578909    
   10.49148      9.5315412E-02  0.5271321      0.5574317    
   10.16891      9.8338999E-02  0.4945423      0.5524008    
   9.856246      0.1014585      0.5308759      0.5564002    
   9.553200      0.1046770      0.5188777      0.5605089    
   9.259472      0.1079975      0.5369176      0.5570343    
   8.974774      0.1114234      0.5068160      0.5593036    
   8.698831      0.1149580      0.5660759      0.5555444    
   8.431372      0.1186047      0.6596129      0.5598247    
   8.172135      0.1223670      0.6697728      0.5605869    
   7.920870      0.1262487      0.5597205      0.5657569    
   7.677330      0.1302536      0.5498249      0.5741848    
   7.441278      0.1343855      0.5288494      0.6033906    
   7.212485      0.1386485      0.5446475      0.6188080    
   6.990726      0.1430467      0.5459050      0.6338971    
   6.775784      0.1475844      0.5400224      0.6510100    
   6.567452      0.1522661      0.5809168      0.6646932    
   6.365525      0.1570962      0.6380529      0.6885177    
   6.169807      0.1620796      0.6865495      0.7169224    
   5.980107      0.1672211      0.7741284      0.7473032    
   5.796239      0.1725257      0.8192329      0.7754779    
   5.618024      0.1779985      0.7773240      0.8046387    
   5.445289      0.1836450      0.7211697      0.8582776    
   5.277865      0.1894706      0.8290324      0.8653829    
   5.115589      0.1954809      0.8750213      0.8807770    
   4.958302      0.2016820      0.9170888      0.8952698    
   4.805851      0.2080797      0.9758936      0.9046233    
   4.658087      0.2146804      0.9756450      0.8914357    
   4.514867      0.2214905      0.9746760      0.8761675    
   4.376050      0.2285166       1.007817      0.8530708    
   4.241501      0.2357656       1.040383      0.8413144    
   4.111090      0.2432445       1.172320      0.8138214    
   3.984688      0.2509607       1.143725      0.7844716    
   3.862172      0.2589217      0.9932771      0.7736308    
   3.743424      0.2671351      0.8614061      0.7456748    
   3.628326      0.2756092      0.8518814      0.7177870    
   3.516768      0.2843520      0.8707722      0.6964577    
   3.408639      0.2933722      0.8251218      0.6555688    
   3.303835      0.3026786      0.7133427      0.6156009    
   3.202253      0.3122801      0.6008890      0.5896073    
   3.103795      0.3221862      0.5555354      0.5551172    
   3.008364      0.3324066      0.5578270      0.5209119    
   2.915867      0.3429512      0.5612435      0.5013016    
   2.826214      0.3538303      0.5488368      0.4708481    
   2.739317      0.3650545      0.5044811      0.4407845    
   2.655093      0.3766347      0.4543253      0.4281912    
   2.573457      0.3885823      0.4348325      0.3980066    
   2.494333      0.4009089      0.4297173      0.3812547    
   2.417640      0.4136265      0.4393095      0.3505650    
   2.343306      0.4267475      0.4366068      0.3280073    
   2.271257      0.4402848      0.4112455      0.3151259    
   2.201424      0.4542515      0.3693035      0.2930876    
   2.133738      0.4686611      0.3132996      0.2815269    
   2.068133      0.4835280      0.2564723      0.2573706    
   2.004544      0.4988664      0.1940054      0.2348388    
   1.942912      0.5146915      0.1928749      0.2238442    
   1.883174      0.5310184      0.1981810      0.2048510    
   1.825273      0.5478634      0.1942751      0.1911536    
   1.769152      0.5652427      0.1883869      0.1723145    
   1.714756      0.5831733      0.1850251      0.1596769    
   1.662033      0.6016726      0.1985191      0.1407814    
   1.610931      0.6207589      0.1940728      0.1255344    
   1.561401      0.6404505      0.1730493      0.1171507    
   1.513393      0.6607669      0.1595554      0.1171507    
   1.466861      0.6817277      0.1513537      0.1131078    
   1.421760      0.7033534      0.1648902      0.1131078    
   1.378046      0.7256652      0.1755404      0.1089584    
   1.335676      0.7486846      0.1763420      0.1089584    
   1.294608      0.7724344      0.1725449      0.1048473    
   1.254804      0.7969375      0.1662117      0.1048473    
   1.216223      0.8222179      0.1764178      0.1010772    
   1.178828      0.8483002      0.1888216      0.1010772    
   1.142583      0.8752099      0.1785913      9.7712941E-02
   1.107453      0.9029732      0.1541665      9.7712941E-02
   1.073402      0.9316174      0.1388751      9.4471410E-02
   1.040399      0.9611701      0.1454447      9.4471410E-02
   1.008410      0.9916603      0.1558687      9.4471410E-02
  0.9774047       1.023118      0.1579997      9.1216594E-02
  0.9473529       1.055573      0.1556837      9.1216594E-02
  0.9182250       1.089058      0.1501296      9.1216594E-02
  0.8899927       1.123605      0.1370318      8.7803923E-02
  0.8626285       1.159248      0.1240446      8.7803923E-02
  0.8361056       1.196021      0.1062253      8.4350437E-02
  0.8103982       1.233961      0.1088908      8.4350437E-02
  0.7854812       1.273105      0.1119538      8.4350437E-02
  0.7613303       1.313490      0.1171712      8.1081487E-02
  0.7379220       1.355157      0.1042750      8.1081487E-02
  0.7152334       1.398145      0.1021829      8.1081487E-02
  0.6932424       1.442497      9.1828160E-02  7.8170158E-02
  0.6719276       1.488256      7.5855128E-02  7.8170158E-02
  0.6512681       1.535466      6.4176731E-02  7.8170158E-02
  0.6312438       1.584174      6.6800617E-02  7.5770877E-02
  0.6118352       1.634427      6.9390789E-02  7.5770877E-02
  0.5930234       1.686274      6.8066292E-02  7.5770877E-02
  0.5747899       1.739766      6.6983216E-02  7.5770877E-02
  0.5571171       1.794955      6.4532161E-02  7.3907971E-02
  0.5399877       1.851894      6.3216083E-02  7.3907971E-02
  0.5233849       1.910640      6.0197514E-02  7.3907971E-02
  0.5072926       1.971249      5.7968855E-02  7.3907971E-02
  0.4916950       2.033781      5.5717718E-02  7.2656959E-02
  0.4765771       2.098296      5.2347410E-02  7.2656959E-02
  0.4619240       2.164858      5.1534306E-02  7.2656959E-02
  0.4477214       2.233532      5.4112390E-02  7.2656959E-02
  0.4339555       2.304384      5.4551765E-02  7.1391508E-02
  0.4206128       2.377483      4.6818793E-02  7.1391508E-02
  0.4076804       2.452902      4.4847149E-02  7.1391508E-02
  0.3951457       2.530712      3.9904468E-02  7.1391508E-02
  0.3829963       2.610991      3.5219759E-02  7.0042685E-02
  0.3712204       2.693817      3.2952789E-02  7.0042685E-02
  0.3598067       2.779270      3.0274721E-02  7.0042685E-02
  0.3487439       2.867434      3.1569891E-02  7.0042685E-02
  0.3380212       2.958395      3.4697454E-02  7.0042685E-02
  0.3276282       3.052241      3.7084561E-02  7.0042685E-02
  0.3175547       3.149064      3.5310742E-02  6.8706848E-02
  0.3077910       3.248958      3.2239445E-02  6.8706848E-02
  0.2983274       3.352021      2.8578965E-02  6.8706848E-02
  0.2891549       3.458354      2.3978762E-02  6.8706848E-02
  0.2802644       3.568060      2.1122782E-02  6.8706848E-02
  0.2716472       3.681245      2.0755284E-02  6.8706848E-02
  0.2632950       3.798022      1.9250672E-02  6.7405984E-02
  0.2551996       3.918502      1.8637748E-02  6.7405984E-02
  0.2473530       4.042805      1.6004348E-02  6.7405984E-02
  0.2397478       4.171050      1.3941742E-02  6.7405984E-02
  0.2323764       4.303364      1.2988586E-02  6.7405984E-02
  0.2252316       4.439875      1.2651650E-02  6.7405984E-02
  0.2183065       4.580716      1.3257551E-02  6.7405984E-02
  0.2115943       4.726026      1.2562936E-02  6.6113465E-02
  0.2050885       4.875944      1.1050156E-02  6.6113465E-02
  0.1987827       5.030619      9.3396492E-03  6.6113465E-02
  0.1926708       5.190199      8.2807690E-03  6.6113465E-02
  0.1867469       5.354843      7.8731505E-03  6.6113465E-02
  0.1810050       5.524709      8.0234595E-03  6.6113465E-02
  0.1754397       5.699963      8.5658049E-03  6.6113465E-02
  0.1700456       5.880777      8.9085158E-03  6.6113465E-02
  0.1648172       6.067327      8.6197127E-03  6.6113465E-02
  0.1597497       6.259794      7.8329267E-03  6.4642288E-02
  0.1548379       6.458367      7.1282540E-03  6.4642288E-02
  0.1500772       6.663239      6.3625444E-03  6.4642288E-02
  0.1454628       6.874609      5.8641899E-03  6.4642288E-02
  0.1409903       7.092686      5.3326548E-03  6.4642288E-02
  0.1366553       7.317679      4.8317695E-03  6.4642288E-02
  0.1324537       7.549810      4.3874290E-03  6.4642288E-02
  0.1283812       7.789305      3.9597182E-03  6.4642288E-02
  0.1244339       8.036396      3.5254378E-03  6.4642288E-02
  0.1206080       8.291327      3.1462745E-03  6.4642288E-02
  0.1168997       8.554343      2.8728314E-03  6.4642288E-02
  0.1133054       8.825704      2.7105312E-03  6.4642288E-02
  0.1098217       9.105672      2.6154262E-03  6.3188009E-02
  0.1064450       9.394522      2.5354726E-03  6.3188009E-02
  0.1031722       9.692533      2.4452300E-03  6.3188009E-02
  0.1000000       10.00000      2.3288031E-03  6.3188009E-02
