 Calculated PSA for the frequency range: 
 Station:   DPQ 
 Component: EHZ
  0.1000000      Hz and    50.00000      Hz
         200 frequencies distributed logarithmically
 Oscillator damping is   5.000000     % of critical
  Freq.(Hz)       Period(s)      PSA(cm/s^2)  Smooth PSA(cm/s^2)
   50.00000      1.9999998E-02  0.9310055      0.9310055    
   48.46267      2.0634437E-02  0.9406709      0.9458263    
   46.97261      2.1289000E-02  0.9509817      0.9512369    
   45.52837      2.1964328E-02  0.9620580      0.9623871    
   44.12852      2.2661081E-02  0.9741213      0.9747975    
   42.77172      2.3379933E-02  0.9882133      0.9883256    
   41.45663      2.4121592E-02   1.002642       1.006472    
   40.18199      2.4886772E-02   1.028560       1.030892    
   38.94653      2.5676232E-02   1.061474       1.052412    
   37.74905      2.6490729E-02   1.067201       1.050096    
   36.58840      2.7331069E-02   1.021612       1.021104    
   35.46343      2.8198060E-02  0.9745000      0.9836638    
   34.37305      2.9092560E-02  0.9548792      0.9652855    
   33.31620      3.0015431E-02  0.9664772      0.9750492    
   32.29184      3.0967580E-02   1.003791       1.016538    
   31.29897      3.1949930E-02   1.079346       1.057079    
   30.33664      3.2963444E-02   1.088099       1.086872    
   29.40389      3.4009106E-02   1.093171       1.104703    
   28.49982      3.5087943E-02   1.132837       1.138218    
   27.62355      3.6201000E-02   1.188645       1.164082    
   26.77422      3.7349366E-02   1.170762       1.186362    
   25.95100      3.8534161E-02   1.199677       1.213093    
   25.15310      3.9756540E-02   1.268841       1.258613    
   24.37972      4.1017693E-02   1.307320       1.275999    
   23.63013      4.2318851E-02   1.282840       1.289707    
   22.90358      4.3661289E-02   1.244997       1.284876    
   22.19938      4.5046311E-02   1.323671       1.286215    
   21.51682      4.6475261E-02   1.265554       1.325543    
   20.85525      4.7949549E-02   1.314015       1.363069    
   20.21403      4.9470600E-02   1.479480       1.379950    
   19.59251      5.1039908E-02   1.432628       1.418828    
   18.99011      5.2658990E-02   1.408072       1.455797    
   18.40623      5.4329433E-02   1.459943       1.460428    
   17.84030      5.6052871E-02   1.498862       1.488833    
   17.29177      5.7830978E-02   1.502637       1.573083    
   16.76011      5.9665482E-02   1.574650       1.689987    
   16.24479      6.1558187E-02   1.829324       1.725089    
   15.74532      6.3510932E-02   1.901209       1.763335    
   15.26120      6.5525629E-02   1.833242       1.762774    
   14.79198      6.7604221E-02   1.709472       1.783453    
   14.33717      6.9748759E-02   1.732112       1.755795    
   13.89635      7.1961328E-02   1.759407       1.736118    
   13.46909      7.4244082E-02   1.719402       1.754085    
   13.05496      7.6599240E-02   1.635720       1.799633    
   12.65356      7.9029121E-02   1.763469       1.812202    
   12.26451      8.1536077E-02   1.959011       1.793448    
   11.88742      8.4122561E-02   2.028309       1.770233    
   11.52192      8.6791091E-02   1.875250       1.771463    
   11.16766      8.9544266E-02   1.757051       1.765279    
   10.82429      9.2384785E-02   1.609371       1.776457    
   10.49148      9.5315412E-02   1.533685       1.762945    
   10.16891      9.8338999E-02   1.645553       1.775989    
   9.856246      0.1014585       1.715809       1.793702    
   9.553200      0.1046770       1.864074       1.836083    
   9.259472      0.1079975       1.837397       1.896037    
   8.974774      0.1114234       1.859509       1.954362    
   8.698831      0.1149580       2.062188       1.910028    
   8.431372      0.1186047       2.052387       1.906332    
   8.172135      0.1223670       2.180856       1.900357    
   7.920870      0.1262487       2.208916       1.897991    
   7.677330      0.1302536       2.116930       1.908608    
   7.441278      0.1343855       1.784210       1.982022    
   7.212485      0.1386485       1.592513       2.039222    
   6.990726      0.1430467       1.601198       2.104495    
   6.775784      0.1475844       1.644106       2.171611    
   6.567452      0.1522661       1.835680       2.151915    
   6.365525      0.1570962       1.964800       2.116123    
   6.169807      0.1620796       2.182347       2.083729    
   5.980107      0.1672211       2.540155       2.027327    
   5.796239      0.1725257       2.782819       2.017687    
   5.618024      0.1779985       2.976013       2.009065    
   5.445289      0.1836450       2.847867       1.970100    
   5.277865      0.1894706       2.315759       1.937791    
   5.115589      0.1954809       1.885411       1.893532    
   4.958302      0.2016820       1.672033       1.871155    
   4.805851      0.2080797       1.631020       1.838281    
   4.658087      0.2146804       1.572027       1.760854    
   4.514867      0.2214905       1.636605       1.733395    
   4.376050      0.2285166       1.620316       1.635461    
   4.241501      0.2357656       1.445956       1.550572    
   4.111090      0.2432445       1.427204       1.419741    
   3.984688      0.2509607       1.481685       1.368661    
   3.862172      0.2589217       1.356221       1.285046    
   3.743424      0.2671351       1.341397       1.195146    
   3.628326      0.2756092       1.355324       1.145162    
   3.516768      0.2843520       1.388143       1.094811    
   3.408639      0.2933722       1.307325       1.025385    
   3.303835      0.3026786       1.195195      0.9574431    
   3.202253      0.3122801       1.199471      0.9145555    
   3.103795      0.3221862       1.156747      0.8566643    
   3.008364      0.3324066       1.067837      0.8010812    
   2.915867      0.3429512      0.9532229      0.7718682    
   2.826214      0.3538303      0.8303810      0.7214617    
   2.739317      0.3650545      0.7215391      0.6772800    
   2.655093      0.3766347      0.6651020      0.6544911    
   2.573457      0.3885823      0.7512585      0.6151963    
   2.494333      0.4009089      0.7601511      0.5882139    
   2.417640      0.4136265      0.6738797      0.5434999    
   2.343306      0.4267475      0.6261097      0.5110475    
   2.271257      0.4402848      0.5473850      0.4902508    
   2.201424      0.4542515      0.4861789      0.4535674    
   2.133738      0.4686611      0.4545861      0.4350831    
   2.068133      0.4835280      0.4252306      0.3961772    
   2.004544      0.4988664      0.3550859      0.3585453    
   1.942912      0.5146915      0.3289772      0.3392696    
   1.883174      0.5310184      0.3024018      0.3075021    
   1.825273      0.5478634      0.2477923      0.2848338    
   1.769152      0.5652427      0.2556559      0.2534877    
   1.714756      0.5831733      0.2439385      0.2346510    
   1.662033      0.6016726      0.2550284      0.2032753    
   1.610931      0.6207589      0.2632562      0.1811727    
   1.561401      0.6404505      0.2735814      0.1658186    
   1.513393      0.6607669      0.2742780      0.1658186    
   1.466861      0.6817277      0.2674609      0.1575432    
   1.421760      0.7033534      0.2538201      0.1575432    
   1.378046      0.7256652      0.2403737      0.1501758    
   1.335676      0.7486846      0.2363604      0.1501758    
   1.294608      0.7724344      0.2265328      0.1438187    
   1.254804      0.7969375      0.2178010      0.1438187    
   1.216223      0.8222179      0.2108105      0.1383685    
   1.178828      0.8483002      0.2094051      0.1383685    
   1.142583      0.8752099      0.2139833      0.1333520    
   1.107453      0.9029732      0.2173291      0.1333520    
   1.073402      0.9316174      0.2129424      0.1274106    
   1.040399      0.9611701      0.2094399      0.1274106    
   1.008410      0.9916603      0.2090023      0.1274106    
  0.9774047       1.023118      0.1999169      0.1212675    
  0.9473529       1.055573      0.1813788      0.1212675    
  0.9182250       1.089058      0.1752582      0.1212675    
  0.8899927       1.123605      0.1714947      0.1158497    
  0.8626285       1.159248      0.1705140      0.1158497    
  0.8361056       1.196021      0.1664266      0.1107976    
  0.8103982       1.233961      0.1576433      0.1107976    
  0.7854812       1.273105      0.1484405      0.1107976    
  0.7613303       1.313490      0.1384710      0.1064318    
  0.7379220       1.355157      0.1229296      0.1064318    
  0.7152334       1.398145      0.1162741      0.1064318    
  0.6932424       1.442497      0.1122477      0.1025959    
  0.6719276       1.488256      0.1089930      0.1025959    
  0.6512681       1.535466      0.1043418      0.1025959    
  0.6312438       1.584174      9.9787526E-02  9.9004179E-02
  0.6118352       1.634427      9.5422916E-02  9.9004179E-02
  0.5930234       1.686274      8.9126267E-02  9.9004179E-02
  0.5747899       1.739766      8.0790237E-02  9.9004179E-02
  0.5571171       1.794955      7.1713790E-02  9.5641017E-02
  0.5399877       1.851894      6.3752338E-02  9.5641017E-02
  0.5233849       1.910640      5.7313561E-02  9.5641017E-02
  0.5072926       1.971249      5.0715882E-02  9.5641017E-02
  0.4916950       2.033781      4.6374384E-02  9.2938460E-02
  0.4765771       2.098296      4.2642422E-02  9.2938460E-02
  0.4619240       2.164858      3.7701160E-02  9.2938460E-02
  0.4477214       2.233532      3.5264656E-02  9.2938460E-02
  0.4339555       2.304384      3.4097061E-02  9.0453841E-02
  0.4206128       2.377483      3.1913653E-02  9.0453841E-02
  0.4076804       2.452902      3.4155574E-02  9.0453841E-02
  0.3951457       2.530712      3.3010591E-02  9.0453841E-02
  0.3829963       2.610991      2.9089423E-02  8.8199079E-02
  0.3712204       2.693817      2.6011361E-02  8.8199079E-02
  0.3598067       2.779270      2.4340633E-02  8.8199079E-02
  0.3487439       2.867434      2.2046823E-02  8.8199079E-02
  0.3380212       2.958395      2.1254126E-02  8.8199079E-02
  0.3276282       3.052241      2.2153143E-02  8.8199079E-02
  0.3175547       3.149064      2.1067224E-02  8.6483024E-02
  0.3077910       3.248958      1.9984784E-02  8.6483024E-02
  0.2983274       3.352021      1.8434998E-02  8.6483024E-02
  0.2891549       3.458354      1.7066501E-02  8.6483024E-02
  0.2802644       3.568060      1.7235074E-02  8.6483024E-02
  0.2716472       3.681245      1.7881522E-02  8.6483024E-02
  0.2632950       3.798022      1.8137373E-02  8.4644191E-02
  0.2551996       3.918502      1.8721893E-02  8.4644191E-02
  0.2473530       4.042805      1.9323112E-02  8.4644191E-02
  0.2397478       4.171050      2.0730132E-02  8.4644191E-02
  0.2323764       4.303364      2.1141723E-02  8.4644191E-02
  0.2252316       4.439875      2.0006342E-02  8.4644191E-02
  0.2183065       4.580716      1.7558832E-02  8.4644191E-02
  0.2115943       4.726026      1.6019572E-02  8.2893699E-02
  0.2050885       4.875944      1.4227437E-02  8.2893699E-02
  0.1987827       5.030619      1.2599748E-02  8.2893699E-02
  0.1926708       5.190199      1.1281033E-02  8.2893699E-02
  0.1867469       5.354843      1.0079780E-02  8.2893699E-02
  0.1810050       5.524709      9.0615954E-03  8.2893699E-02
  0.1754397       5.699963      8.2150046E-03  8.2893699E-02
  0.1700456       5.880777      7.4954364E-03  8.2893699E-02
  0.1648172       6.067327      7.0085018E-03  8.2893699E-02
  0.1597497       6.259794      6.8840189E-03  8.0981098E-02
  0.1548379       6.458367      6.9273002E-03  8.0981098E-02
  0.1500772       6.663239      6.9858721E-03  8.0981098E-02
  0.1454628       6.874609      6.9185481E-03  8.0981098E-02
  0.1409903       7.092686      6.9529610E-03  8.0981098E-02
  0.1366553       7.317679      6.5997634E-03  8.0981098E-02
  0.1324537       7.549810      6.2230644E-03  8.0981098E-02
  0.1283812       7.789305      6.2496667E-03  8.0981098E-02
  0.1244339       8.036396      6.0025016E-03  8.0981098E-02
  0.1206080       8.291327      5.5360734E-03  8.0981098E-02
  0.1168997       8.554343      4.8875972E-03  8.0981098E-02
  0.1133054       8.825704      4.1589625E-03  8.0981098E-02
  0.1098217       9.105672      3.4722164E-03  7.8933060E-02
  0.1064450       9.394522      2.9196353E-03  7.8933060E-02
  0.1031722       9.692533      2.5567936E-03  7.8933060E-02
  0.1000000       10.00000      2.3608797E-03  7.8933060E-02
