 Calculated PSA for the frequency range: 
 Station:   LMQ 
 Component: BHE
  0.1000000      Hz and    50.00000      Hz
         200 frequencies distributed logarithmically
 Oscillator damping is   5.000000     % of critical
  Freq.(Hz)       Period(s)      PSA(cm/s^2)  Smooth PSA(cm/s^2)
   50.00000      1.9999998E-02  0.4888433      0.4888433    
   48.46267      2.0634437E-02  0.4682543      0.4741780    
   46.97261      2.1289000E-02  0.4801016      0.4797587    
   45.52837      2.1964328E-02  0.4909201      0.4843137    
   44.12852      2.2661081E-02  0.4819193      0.4792599    
   42.77172      2.3379933E-02  0.4649402      0.4690714    
   41.45663      2.4121592E-02  0.4603546      0.4625621    
   40.18199      2.4886772E-02  0.4623915      0.4651842    
   38.94653      2.5676232E-02  0.4728066      0.4726717    
   37.74905      2.6490729E-02  0.4828169      0.4814933    
   36.58840      2.7331069E-02  0.4888564      0.4893476    
   35.46343      2.8198060E-02  0.4963697      0.4986649    
   34.37305      2.9092560E-02  0.5107687      0.5127695    
   33.31620      3.0015431E-02  0.5311700      0.5373494    
   32.29184      3.0967580E-02  0.5701094      0.5687100    
   31.29897      3.1949930E-02  0.6048508      0.5964549    
   30.33664      3.2963444E-02  0.6144045      0.6184852    
   29.40389      3.4009106E-02  0.6362003      0.6354805    
   28.49982      3.5087943E-02  0.6558366      0.6292681    
   27.62355      3.6201000E-02  0.5957674      0.5997396    
   26.77422      3.7349366E-02  0.5476149      0.5449359    
   25.95100      3.8534161E-02  0.4914254      0.5125307    
   25.15310      3.9756540E-02  0.4985519      0.4953053    
   24.37972      4.1017693E-02  0.4959387      0.4942577    
   23.63013      4.2318851E-02  0.4917251      0.4901869    
   22.90358      4.3661289E-02  0.4908151      0.4862919    
   22.19938      4.5046311E-02  0.4822686      0.4796560    
   21.51682      4.6475261E-02  0.4707118      0.4732186    
   20.85525      4.7949549E-02  0.4627595      0.4669290    
   20.21403      4.9470600E-02  0.4595381      0.4653026    
   19.59251      5.1039908E-02  0.4593668      0.4702592    
   18.99011      5.2658990E-02  0.4741368      0.4827583    
   18.40623      5.4329433E-02  0.4954949      0.5008609    
   17.84030      5.6052871E-02  0.5252548      0.5211771    
   17.29177      5.7830978E-02  0.5500510      0.5429973    
   16.76011      5.9665482E-02  0.5609480      0.5842564    
   16.24479      6.1558187E-02  0.5832380      0.6147939    
   15.74532      6.3510932E-02  0.6214932      0.6551614    
   15.26120      6.5525629E-02  0.6645535      0.6877567    
   14.79198      6.7604221E-02  0.7084796      0.7687958    
   14.33717      6.9748759E-02  0.7922559      0.8794775    
   13.89635      7.1961328E-02  0.8833286       1.003093    
   13.46909      7.4244082E-02   1.128221       1.113034    
   13.05496      7.6599240E-02   1.358010       1.185049    
   12.65356      7.9029121E-02   1.486802       1.255975    
   12.26451      8.1536077E-02   1.434140       1.314791    
   11.88742      8.4122561E-02   1.212589       1.332903    
   11.52192      8.6791091E-02   1.208523       1.306717    
   11.16766      8.9544266E-02   1.336186       1.302256    
   10.82429      9.2384785E-02   1.353857       1.278488    
   10.49148      9.5315412E-02   1.273118       1.253693    
   10.16891      9.8338999E-02   1.148520       1.232185    
   9.856246      0.1014585       1.266571       1.223626    
   9.553200      0.1046770       1.272884       1.201720    
   9.259472      0.1079975       1.210991       1.175836    
   8.974774      0.1114234       1.112322       1.156924    
   8.698831      0.1149580       1.138874       1.163016    
   8.431372      0.1186047       1.122934       1.168741    
   8.172135      0.1223670       1.117134       1.164341    
   7.920870      0.1262487       1.095010       1.157244    
   7.677330      0.1302536       1.084005       1.165576    
   7.441278      0.1343855       1.141122       1.168104    
   7.212485      0.1386485       1.245827       1.164964    
   6.990726      0.1430467       1.217222       1.175372    
   6.775784      0.1475844       1.213769       1.228164    
   6.567452      0.1522661       1.187712       1.262819    
   6.365525      0.1570962       1.310982       1.310432    
   6.169807      0.1620796       1.204733       1.355094    
   5.980107      0.1672211       1.106030       1.407841    
   5.796239      0.1725257       1.124133       1.452223    
   5.618024      0.1779985       1.284590       1.489912    
   5.445289      0.1836450       1.493998       1.561872    
   5.277865      0.1894706       1.596190       1.608701    
   5.115589      0.1954809       1.636964       1.701841    
   4.958302      0.2016820       1.809192       1.742754    
   4.805851      0.2080797       1.753942       1.761920    
   4.658087      0.2146804       1.756965       1.753115    
   4.514867      0.2214905       1.849924       1.723885    
   4.376050      0.2285166       1.895622       1.677642    
   4.241501      0.2357656       1.886541       1.660294    
   4.111090      0.2432445       1.860474       1.587265    
   3.984688      0.2509607       2.141936       1.509232    
   3.862172      0.2589217       2.451613       1.472440    
   3.743424      0.2671351       2.357893       1.391095    
   3.628326      0.2756092       2.327382       1.320799    
   3.516768      0.2843520       2.005971       1.275779    
   3.408639      0.2933722       1.694297       1.195652    
   3.303835      0.3026786       1.480257       1.119047    
   3.202253      0.3122801       1.301489       1.068123    
   3.103795      0.3221862       1.110054       1.001403    
   3.008364      0.3324066      0.9190361      0.9395884    
   2.915867      0.3429512      0.8473031      0.9067886    
   2.826214      0.3538303      0.7251159      0.8463537    
   2.739317      0.3650545      0.6526467      0.7865317    
   2.655093      0.3766347      0.5395609      0.7572400    
   2.573457      0.3885823      0.5481156      0.7023277    
   2.494333      0.4009089      0.5975555      0.6642480    
   2.417640      0.4136265      0.5373945      0.5994238    
   2.343306      0.4267475      0.4540850      0.5422577    
   2.271257      0.4402848      0.4182490      0.5187688    
   2.201424      0.4542515      0.3865058      0.4618458    
   2.133738      0.4686611      0.3570828      0.4423156    
   2.068133      0.4835280      0.3313976      0.3847344    
   2.004544      0.4988664      0.3389225      0.3375554    
   1.942912      0.5146915      0.3422387      0.3198150    
   1.883174      0.5310184      0.3006392      0.2839004    
   1.825273      0.5478634      0.2741955      0.2635246    
   1.769152      0.5652427      0.2706937      0.2301007    
   1.714756      0.5831733      0.2868865      0.2127997    
   1.662033      0.6016726      0.2802638      0.1822245    
   1.610931      0.6207589      0.2763648      0.1622801    
   1.561401      0.6404505      0.3269030      0.1478287    
   1.513393      0.6607669      0.3609099      0.1478287    
   1.466861      0.6817277      0.3511777      0.1407534    
   1.421760      0.7033534      0.3144048      0.1407534    
   1.378046      0.7256652      0.2694983      0.1342112    
   1.335676      0.7486846      0.2363852      0.1342112    
   1.294608      0.7724344      0.2140744      0.1286888    
   1.254804      0.7969375      0.1857633      0.1286888    
   1.216223      0.8222179      0.1815187      0.1237458    
   1.178828      0.8483002      0.1905831      0.1237458    
   1.142583      0.8752099      0.1698010      0.1197856    
   1.107453      0.9029732      0.1415992      0.1197856    
   1.073402      0.9316174      0.1351966      0.1156671    
   1.040399      0.9611701      0.1343898      0.1156671    
   1.008410      0.9916603      0.1238086      0.1156671    
  0.9774047       1.023118      0.1309309      0.1109885    
  0.9473529       1.055573      0.1463321      0.1109885    
  0.9182250       1.089058      0.1464314      0.1109885    
  0.8899927       1.123605      0.1533676      0.1068081    
  0.8626285       1.159248      0.1536935      0.1068081    
  0.8361056       1.196021      0.1477757      0.1033697    
  0.8103982       1.233961      0.1425685      0.1033697    
  0.7854812       1.273105      0.1384973      0.1033697    
  0.7613303       1.313490      0.1376565      0.1002209    
  0.7379220       1.355157      0.1240763      0.1002209    
  0.7152334       1.398145      0.1167779      0.1002209    
  0.6932424       1.442497      0.1028969      9.7329117E-02
  0.6719276       1.488256      9.7565211E-02  9.7329117E-02
  0.6512681       1.535466      9.1386527E-02  9.7329117E-02
  0.6312438       1.584174      7.8661866E-02  9.4678581E-02
  0.6118352       1.634427      6.1490141E-02  9.4678581E-02
  0.5930234       1.686274      5.9817061E-02  9.4678581E-02
  0.5747899       1.739766      5.7066213E-02  9.4678581E-02
  0.5571171       1.794955      5.7871718E-02  9.2238173E-02
  0.5399877       1.851894      6.5944061E-02  9.2238173E-02
  0.5233849       1.910640      6.0830839E-02  9.2238173E-02
  0.5072926       1.971249      5.0430503E-02  9.2238173E-02
  0.4916950       2.033781      4.9369350E-02  8.9668542E-02
  0.4765771       2.098296      4.6676278E-02  8.9668542E-02
  0.4619240       2.164858      4.0236123E-02  8.9668542E-02
  0.4477214       2.233532      4.3073397E-02  8.9668542E-02
  0.4339555       2.304384      4.9553994E-02  8.7009914E-02
  0.4206128       2.377483      4.8686925E-02  8.7009914E-02
  0.4076804       2.452902      4.1185685E-02  8.7009914E-02
  0.3951457       2.530712      3.6212865E-02  8.7009914E-02
  0.3829963       2.610991      3.3749394E-02  8.4737264E-02
  0.3712204       2.693817      3.0825565E-02  8.4737264E-02
  0.3598067       2.779270      2.8707961E-02  8.4737264E-02
  0.3487439       2.867434      2.8380727E-02  8.4737264E-02
  0.3380212       2.958395      2.8023839E-02  8.4737264E-02
  0.3276282       3.052241      2.5527101E-02  8.4737264E-02
  0.3175547       3.149064      2.2083692E-02  8.2700074E-02
  0.3077910       3.248958      2.0281391E-02  8.2700074E-02
  0.2983274       3.352021      2.0839792E-02  8.2700074E-02
  0.2891549       3.458354      2.1337904E-02  8.2700074E-02
  0.2802644       3.568060      2.1001497E-02  8.2700074E-02
  0.2716472       3.681245      1.8425597E-02  8.2700074E-02
  0.2632950       3.798022      1.4596620E-02  8.0656663E-02
  0.2551996       3.918502      1.3034478E-02  8.0656663E-02
  0.2473530       4.042805      1.3152056E-02  8.0656663E-02
  0.2397478       4.171050      1.4934530E-02  8.0656663E-02
  0.2323764       4.303364      1.6123235E-02  8.0656663E-02
  0.2252316       4.439875      1.7009335E-02  8.0656663E-02
  0.2183065       4.580716      1.6660582E-02  8.0656663E-02
  0.2115943       4.726026      1.6071098E-02  7.8390397E-02
  0.2050885       4.875944      1.4983167E-02  7.8390397E-02
  0.1987827       5.030619      1.3366443E-02  7.8390397E-02
  0.1926708       5.190199      1.1584450E-02  7.8390397E-02
  0.1867469       5.354843      1.0150176E-02  7.8390397E-02
  0.1810050       5.524709      9.0112546E-03  7.8390397E-02
  0.1754397       5.699963      8.2744481E-03  7.8390397E-02
  0.1700456       5.880777      8.1184600E-03  7.8390397E-02
  0.1648172       6.067327      7.6813023E-03  7.8390397E-02
  0.1597497       6.259794      6.9156596E-03  7.6147363E-02
  0.1548379       6.458367      6.1284024E-03  7.6147363E-02
  0.1500772       6.663239      5.3321738E-03  7.6147363E-02
  0.1454628       6.874609      4.7622742E-03  7.6147363E-02
  0.1409903       7.092686      4.8164935E-03  7.6147363E-02
  0.1366553       7.317679      4.6488144E-03  7.6147363E-02
  0.1324537       7.549810      4.3286751E-03  7.6147363E-02
  0.1283812       7.789305      3.8810335E-03  7.6147363E-02
  0.1244339       8.036396      3.5185532E-03  7.6147363E-02
  0.1206080       8.291327      3.1467760E-03  7.6147363E-02
  0.1168997       8.554343      2.7654513E-03  7.6147363E-02
  0.1133054       8.825704      2.4001617E-03  7.6147363E-02
  0.1098217       9.105672      2.0477641E-03  7.3897727E-02
  0.1064450       9.394522      1.8575718E-03  7.3897727E-02
  0.1031722       9.692533      1.7336092E-03  7.3897727E-02
  0.1000000       10.00000      1.6006113E-03  7.3897727E-02
