 Calculated PSA for the frequency range: 
 Station:   SADO
 Component: BHE
  0.1000000      Hz and    50.00000      Hz
         200 frequencies distributed logarithmically
 Oscillator damping is   5.000000     % of critical
  Freq.(Hz)       Period(s)      PSA(cm/s^2)  Smooth PSA(cm/s^2)
   50.00000      1.9999998E-02  0.5050074      0.5050074    
   48.46267      2.0634437E-02  0.4866278      0.4771501    
   46.97261      2.1289000E-02  0.4676725      0.4690042    
   45.52837      2.1964328E-02  0.4527122      0.4546436    
   44.12852      2.2661081E-02  0.4435460      0.4488331    
   42.77172      2.3379933E-02  0.4502411      0.4525040    
   41.45663      2.4121592E-02  0.4637249      0.4636768    
   40.18199      2.4886772E-02  0.4770644      0.4771574    
   38.94653      2.5676232E-02  0.4906830      0.4912234    
   37.74905      2.6490729E-02  0.5059227      0.5056141    
   36.58840      2.7331069E-02  0.5202366      0.5151930    
   35.46343      2.8198060E-02  0.5194196      0.5139424    
   34.37305      2.9092560E-02  0.5021712      0.5026493    
   33.31620      3.0015431E-02  0.4863571      0.4831796    
   32.29184      3.0967580E-02  0.4610106      0.4609503    
   31.29897      3.1949930E-02  0.4354833      0.4511456    
   30.33664      3.2963444E-02  0.4569431      0.4628276    
   29.40389      3.4009106E-02  0.4960564      0.4855820    
   28.49982      3.5087943E-02  0.5037466      0.4856055    
   27.62355      3.6201000E-02  0.4570134      0.4596129    
   26.77422      3.7349366E-02  0.4180788      0.4371804    
   25.95100      3.8534161E-02  0.4364491      0.4320613    
   25.15310      3.9756540E-02  0.4416560      0.4444425    
   24.37972      4.1017693E-02  0.4552224      0.4450419    
   23.63013      4.2318851E-02  0.4622904      0.4382265    
   22.90358      4.3661289E-02  0.4209988      0.4332500    
   22.19938      4.5046311E-02  0.4143944      0.4317155    
   21.51682      4.6475261E-02  0.4133443      0.4348010    
   20.85525      4.7949549E-02  0.4475497      0.4521407    
   20.21403      4.9470600E-02  0.4777177      0.4775546    
   19.59251      5.1039908E-02  0.5076972      0.5118458    
   18.99011      5.2658990E-02  0.5414641      0.5451758    
   18.40623      5.4329433E-02  0.5848005      0.5718275    
   17.84030      5.6052871E-02  0.6141995      0.5903649    
   17.29177      5.7830978E-02  0.6109763      0.5881501    
   16.76011      5.9665482E-02  0.6003841      0.5827541    
   16.24479      6.1558187E-02  0.5303906      0.5783281    
   15.74532      6.3510932E-02  0.5525570      0.5784389    
   15.26120      6.5525629E-02  0.5880168      0.5827406    
   14.79198      6.7604221E-02  0.5876443      0.5887009    
   14.33717      6.9748759E-02  0.6116411      0.6194969    
   13.89635      7.1961328E-02  0.6085505      0.6659456    
   13.46909      7.4244082E-02  0.6421060      0.7373813    
   13.05496      7.6599240E-02  0.7459629      0.8214726    
   12.65356      7.9029121E-02  0.8776972      0.9011216    
   12.26451      8.1536077E-02   1.088067      0.9530699    
   11.88742      8.4122561E-02   1.176283       1.002874    
   11.52192      8.6791091E-02   1.037578       1.025358    
   11.16766      8.9544266E-02   1.032727       1.015695    
   10.82429      9.2384785E-02   1.024138       1.021254    
   10.49148      9.5315412E-02   1.040541       1.005477    
   10.16891      9.8338999E-02  0.9258295       1.002709    
   9.856246      0.1014585      0.9383947       1.024596    
   9.553200      0.1046770      0.9277307       1.057204    
   9.259472      0.1079975      0.9460762       1.082081    
   8.974774      0.1114234       1.037915       1.105637    
   8.698831      0.1149580       1.116163       1.100325    
   8.431372      0.1186047       1.256444       1.104941    
   8.172135      0.1223670       1.358807       1.121471    
   7.920870      0.1262487       1.272909       1.142615    
   7.677330      0.1302536       1.276097       1.171707    
   7.441278      0.1343855       1.129538       1.241636    
   7.212485      0.1386485       1.017993       1.248289    
   6.990726      0.1430467      0.9812198       1.256705    
   6.775784      0.1475844       1.136761       1.267182    
   6.567452      0.1522661       1.181456       1.264241    
   6.365525      0.1570962       1.295184       1.262734    
   6.169807      0.1620796       1.576588       1.259743    
   5.980107      0.1672211       1.542111       1.276404    
   5.796239      0.1725257       1.334775       1.294289    
   5.618024      0.1779985       1.233991       1.312122    
   5.445289      0.1836450       1.381372       1.308062    
   5.277865      0.1894706       1.288936       1.287045    
   5.115589      0.1954809       1.314682       1.270723    
   4.958302      0.2016820       1.250305       1.264147    
   4.805851      0.2080797       1.231241       1.247945    
   4.658087      0.2146804       1.358212       1.191860    
   4.514867      0.2214905       1.444498       1.172916    
   4.376050      0.2285166       1.433590       1.113702    
   4.241501      0.2357656       1.321160       1.079571    
   4.111090      0.2432445       1.176200       1.021332    
   3.984688      0.2509607       1.044052      0.9739563    
   3.862172      0.2589217      0.9087332      0.9358479    
   3.743424      0.2671351       1.035468      0.8792755    
   3.628326      0.2756092       1.061900      0.8379365    
   3.516768      0.2843520       1.049949      0.8016912    
   3.408639      0.2933722      0.9711316      0.7523342    
   3.303835      0.3026786      0.8739193      0.7062905    
   3.202253      0.3122801      0.7728230      0.6789776    
   3.103795      0.3221862      0.7751045      0.6320505    
   3.008364      0.3324066      0.7055371      0.5851800    
   2.915867      0.3429512      0.6475512      0.5638756    
   2.826214      0.3538303      0.5497683      0.5212939    
   2.739317      0.3650545      0.4653174      0.4818770    
   2.655093      0.3766347      0.4505043      0.4641912    
   2.573457      0.3885823      0.4157622      0.4311627    
   2.494333      0.4009089      0.3951479      0.4121636    
   2.417640      0.4136265      0.3905520      0.3808567    
   2.343306      0.4267475      0.3621726      0.3600739    
   2.271257      0.4402848      0.3351578      0.3484919    
   2.201424      0.4542515      0.2983508      0.3233956    
   2.133738      0.4686611      0.2613671      0.3106801    
   2.068133      0.4835280      0.2635702      0.2807204    
   2.004544      0.4988664      0.2796228      0.2523451    
   1.942912      0.5146915      0.2916623      0.2384930    
   1.883174      0.5310184      0.2790137      0.2153386    
   1.825273      0.5478634      0.2772069      0.2002024    
   1.769152      0.5652427      0.2636898      0.1783382    
   1.714756      0.5831733      0.2475656      0.1658165    
   1.662033      0.6016726      0.2217070      0.1451287    
   1.610931      0.6207589      0.2199598      0.1295015    
   1.561401      0.6404505      0.2192413      0.1190310    
   1.513393      0.6607669      0.2168393      0.1190310    
   1.466861      0.6817277      0.2000620      0.1136502    
   1.421760      0.7033534      0.1820365      0.1136502    
   1.378046      0.7256652      0.1875454      0.1087067    
   1.335676      0.7486846      0.1918167      0.1087067    
   1.294608      0.7724344      0.1724603      0.1045846    
   1.254804      0.7969375      0.1327360      0.1045846    
   1.216223      0.8222179      0.1211139      0.1011815    
   1.178828      0.8483002      0.1175219      0.1011815    
   1.142583      0.8752099      0.1226952      9.7854570E-02
   1.107453      0.9029732      0.1304987      9.7854570E-02
   1.073402      0.9316174      0.1428790      9.4797768E-02
   1.040399      0.9611701      0.1473837      9.4797768E-02
   1.008410      0.9916603      0.1482615      9.4797768E-02
  0.9774047       1.023118      0.1456443      9.1881745E-02
  0.9473529       1.055573      0.1299068      9.1881745E-02
  0.9182250       1.089058      0.1214058      9.1881745E-02
  0.8899927       1.123605      0.1334039      8.8953607E-02
  0.8626285       1.159248      0.1586142      8.8953607E-02
  0.8361056       1.196021      0.1716180      8.6248465E-02
  0.8103982       1.233961      0.1671097      8.6248465E-02
  0.7854812       1.273105      0.1508128      8.6248465E-02
  0.7613303       1.313490      0.1392020      8.3759375E-02
  0.7379220       1.355157      0.1360319      8.3759375E-02
  0.7152334       1.398145      0.1271143      8.3759375E-02
  0.6932424       1.442497      0.1056815      8.1591778E-02
  0.6719276       1.488256      8.4269062E-02  8.1591778E-02
  0.6512681       1.535466      6.8166845E-02  8.1591778E-02
  0.6312438       1.584174      6.0922153E-02  7.9757333E-02
  0.6118352       1.634427      6.0206603E-02  7.9757333E-02
  0.5930234       1.686274      5.6120932E-02  7.9757333E-02
  0.5747899       1.739766      4.9067248E-02  7.9757333E-02
  0.5571171       1.794955      4.0648941E-02  7.7862360E-02
  0.5399877       1.851894      3.3786312E-02  7.7862360E-02
  0.5233849       1.910640      2.9908516E-02  7.7862360E-02
  0.5072926       1.971249      2.8494464E-02  7.7862360E-02
  0.4916950       2.033781      2.6626198E-02  7.5760685E-02
  0.4765771       2.098296      2.3869900E-02  7.5760685E-02
  0.4619240       2.164858      2.2777298E-02  7.5760685E-02
  0.4477214       2.233532      2.1871697E-02  7.5760685E-02
  0.4339555       2.304384      2.0022033E-02  7.3488034E-02
  0.4206128       2.377483      2.2199109E-02  7.3488034E-02
  0.4076804       2.452902      2.2832520E-02  7.3488034E-02
  0.3951457       2.530712      2.3901552E-02  7.3488034E-02
  0.3829963       2.610991      2.3741161E-02  7.1301594E-02
  0.3712204       2.693817      2.4646629E-02  7.1301594E-02
  0.3598067       2.779270      2.5412975E-02  7.1301594E-02
  0.3487439       2.867434      2.7035203E-02  7.1301594E-02
  0.3380212       2.958395      2.8591935E-02  7.1301594E-02
  0.3276282       3.052241      2.7389381E-02  7.1301594E-02
  0.3175547       3.149064      2.4285693E-02  6.9087557E-02
  0.3077910       3.248958      2.0913348E-02  6.9087557E-02
  0.2983274       3.352021      1.9150045E-02  6.9087557E-02
  0.2891549       3.458354      1.8778762E-02  6.9087557E-02
  0.2802644       3.568060      2.0286527E-02  6.9087557E-02
  0.2716472       3.681245      2.2383796E-02  6.9087557E-02
  0.2632950       3.798022      2.3659026E-02  6.6972315E-02
  0.2551996       3.918502      2.3928180E-02  6.6972315E-02
  0.2473530       4.042805      2.3930427E-02  6.6972315E-02
  0.2397478       4.171050      2.4049576E-02  6.6972315E-02
  0.2323764       4.303364      2.2891559E-02  6.6972315E-02
  0.2252316       4.439875      2.1135559E-02  6.6972315E-02
  0.2183065       4.580716      1.9378832E-02  6.6972315E-02
  0.2115943       4.726026      1.8221928E-02  6.4987771E-02
  0.2050885       4.875944      1.7519623E-02  6.4987771E-02
  0.1987827       5.030619      1.6941445E-02  6.4987771E-02
  0.1926708       5.190199      1.6331917E-02  6.4987771E-02
  0.1867469       5.354843      1.5342593E-02  6.4987771E-02
  0.1810050       5.524709      1.4356890E-02  6.4987771E-02
  0.1754397       5.699963      1.3063033E-02  6.4987771E-02
  0.1700456       5.880777      1.1774487E-02  6.4987771E-02
  0.1648172       6.067327      1.0466619E-02  6.4987771E-02
  0.1597497       6.259794      9.4406595E-03  6.3246444E-02
  0.1548379       6.458367      8.4780836E-03  6.3246444E-02
  0.1500772       6.663239      7.6636779E-03  6.3246444E-02
  0.1454628       6.874609      6.8755280E-03  6.3246444E-02
  0.1409903       7.092686      6.2035560E-03  6.3246444E-02
  0.1366553       7.317679      5.5907248E-03  6.3246444E-02
  0.1324537       7.549810      5.0210999E-03  6.3246444E-02
  0.1283812       7.789305      4.5681824E-03  6.3246444E-02
  0.1244339       8.036396      4.2465222E-03  6.3246444E-02
  0.1206080       8.291327      4.0052207E-03  6.3246444E-02
  0.1168997       8.554343      3.7867653E-03  6.3246444E-02
  0.1133054       8.825704      3.5501490E-03  6.3246444E-02
  0.1098217       9.105672      3.3030189E-03  6.1485622E-02
  0.1064450       9.394522      3.0683265E-03  6.1485622E-02
  0.1031722       9.692533      2.8513551E-03  6.1485622E-02
  0.1000000       10.00000      2.6328242E-03  6.1485622E-02
