 Calculated PSA for the frequency range: 
 Station:   TYNO
 Component: HHN
  0.1000000      Hz and    50.00000      Hz
         200 frequencies distributed logarithmically
 Oscillator damping is   5.000000     % of critical
  Freq.(Hz)       Period(s)      PSA(cm/s^2)  Smooth PSA(cm/s^2)
   50.00000      1.9999998E-02   3.112131       3.112131    
   48.46267      2.0634437E-02   3.114266       3.115392    
   46.97261      2.1289000E-02   3.116518       3.116671    
   45.52837      2.1964328E-02   3.119230       3.120077    
   44.12852      2.2661081E-02   3.124483       3.125278    
   42.77172      2.3379933E-02   3.132121       3.131001    
   41.45663      2.4121592E-02   3.136397       3.135606    
   40.18199      2.4886772E-02   3.138299       3.143375    
   38.94653      2.5676232E-02   3.155428       3.159205    
   37.74905      2.6490729E-02   3.183887       3.183633    
   36.58840      2.7331069E-02   3.211582       3.206487    
   35.46343      2.8198060E-02   3.223993       3.222499    
   34.37305      2.9092560E-02   3.231922       3.238300    
   33.31620      3.0015431E-02   3.258986       3.255943    
   32.29184      3.0967580E-02   3.276921       3.260756    
   31.29897      3.1949930E-02   3.246360       3.250198    
   30.33664      3.2963444E-02   3.227312       3.225527    
   29.40389      3.4009106E-02   3.202909       3.206500    
   28.49982      3.5087943E-02   3.189279       3.194659    
   27.62355      3.6201000E-02   3.191789       3.188097    
   26.77422      3.7349366E-02   3.183223       3.177917    
   25.95100      3.8534161E-02   3.158738       3.181613    
   25.15310      3.9756540E-02   3.202876       3.202779    
   24.37972      4.1017693E-02   3.246722       3.266660    
   23.63013      4.2318851E-02   3.301910       3.296320    
   22.90358      4.3661289E-02   3.315132       3.305133    
   22.19938      4.5046311E-02   3.321515       3.326569    
   21.51682      4.6475261E-02   3.340384       3.336109    
   20.85525      4.7949549E-02   3.353905       3.336387    
   20.21403      4.9470600E-02   3.349608       3.322895    
   19.59251      5.1039908E-02   3.316521       3.287346    
   18.99011      5.2658990E-02   3.254057       3.246783    
   18.40623      5.4329433E-02   3.162638       3.232553    
   17.84030      5.6052871E-02   3.151090       3.239079    
   17.29177      5.7830978E-02   3.278461       3.267466    
   16.76011      5.9665482E-02   3.349149       3.340232    
   16.24479      6.1558187E-02   3.395991       3.395793    
   15.74532      6.3510932E-02   3.433777       3.444316    
   15.26120      6.5525629E-02   3.432923       3.467945    
   14.79198      6.7604221E-02   3.484453       3.506372    
   14.33717      6.9748759E-02   3.569600       3.534721    
   13.89635      7.1961328E-02   3.609723       3.556000    
   13.46909      7.4244082E-02   3.618138       3.579292    
   13.05496      7.6599240E-02   3.594431       3.598103    
   12.65356      7.9029121E-02   3.582730       3.662764    
   12.26451      8.1536077E-02   3.595964       3.719670    
   11.88742      8.4122561E-02   3.616132       3.816519    
   11.52192      8.6791091E-02   3.755378       3.919241    
   11.16766      8.9544266E-02   3.929618       3.948078    
   10.82429      9.2384785E-02   4.064970       4.022224    
   10.49148      9.5315412E-02   4.392929       4.092585    
   10.16891      9.8338999E-02   4.416209       4.205012    
   9.856246      0.1014585       4.178772       4.296406    
   9.553200      0.1046770       4.250044       4.397711    
   9.259472      0.1079975       4.229217       4.505907    
   8.974774      0.1114234       4.333416       4.594520    
   8.698831      0.1149580       4.499569       4.651402    
   8.431372      0.1186047       4.669319       4.689596    
   8.172135      0.1223670       4.942671       4.786369    
   7.920870      0.1262487       5.146918       4.905951    
   7.677330      0.1302536       5.279065       5.042157    
   7.441278      0.1343855       5.077432       5.237766    
   7.212485      0.1386485       4.794191       5.305863    
   6.990726      0.1430467       4.874531       5.423110    
   6.775784      0.1475844       5.340053       5.628152    
   6.567452      0.1522661       5.685024       5.817553    
   6.365525      0.1570962       5.863690       6.101000    
   6.169807      0.1620796       5.998697       6.490875    
   5.980107      0.1672211       5.919800       7.201827    
   5.796239      0.1725257       6.191139       7.787074    
   5.618024      0.1779985       6.141013       8.488066    
   5.445289      0.1836450       6.390769       9.756145    
   5.277865      0.1894706       6.777286       10.04840    
   5.115589      0.1954809       7.783683       10.43348    
   4.958302      0.2016820       9.398629       10.59255    
   4.805851      0.2080797       11.12718       10.72050    
   4.658087      0.2146804       11.86446       10.80937    
   4.514867      0.2214905       13.20348       10.67029    
   4.376050      0.2285166       15.02662       10.44521    
   4.241501      0.2357656       16.71106       10.37812    
   4.111090      0.2432445       18.30737       10.01549    
   3.984688      0.2509607       17.88067       9.491404    
   3.862172      0.2589217       15.30901       9.351763    
   3.743424      0.2671351       12.65670       8.922193    
   3.628326      0.2756092       10.43329       8.428580    
   3.516768      0.2843520       8.866518       8.207122    
   3.408639      0.2933722       8.422721       7.705378    
   3.303835      0.3026786       9.413450       7.182580    
   3.202253      0.3122801       9.171947       6.816211    
   3.103795      0.3221862       7.749556       6.324506    
   3.008364      0.3324066       6.240518       5.817096    
   2.915867      0.3429512       5.172855       5.546681    
   2.826214      0.3538303       4.647960       5.046711    
   2.739317      0.3650545       4.160715       4.522832    
   2.655093      0.3766347       3.655387       4.328970    
   2.573457      0.3885823       3.338688       3.815739    
   2.494333      0.4009089       3.066000       3.589978    
   2.417640      0.4136265       2.760078       3.080736    
   2.343306      0.4267475       2.434287       2.715361    
   2.271257      0.4402848       2.096368       2.577875    
   2.201424      0.4542515       1.922024       2.260707    
   2.133738      0.4686611       1.607611       2.154397    
   2.068133      0.4835280       1.361382       1.881563    
   2.004544      0.4988664       1.227017       1.654539    
   1.942912      0.5146915       1.326424       1.559505    
   1.883174      0.5310184       1.348892       1.373706    
   1.825273      0.5478634       1.276911       1.268388    
   1.769152      0.5652427       1.177002       1.073758    
   1.714756      0.5831733       1.098005      0.9892194    
   1.662033      0.6016726       1.010064      0.8105340    
   1.610931      0.6207589      0.9526308      0.7201841    
   1.561401      0.6404505      0.9215546      0.6302003    
   1.513393      0.6607669      0.8470801      0.6302003    
   1.466861      0.6817277      0.8326393      0.5787295    
   1.421760      0.7033534      0.7962122      0.5787295    
   1.378046      0.7256652      0.7849465      0.5361912    
   1.335676      0.7486846      0.7895052      0.5361912    
   1.294608      0.7724344      0.7115834      0.4977635    
   1.254804      0.7969375      0.6148794      0.4977635    
   1.216223      0.8222179      0.5507735      0.4632074    
   1.178828      0.8483002      0.5465442      0.4632074    
   1.142583      0.8752099      0.5328564      0.4328056    
   1.107453      0.9029732      0.5477867      0.4328056    
   1.073402      0.9316174      0.4957111      0.4048645    
   1.040399      0.9611701      0.3961298      0.4048645    
   1.008410      0.9916603      0.3961121      0.4048645    
  0.9774047       1.023118      0.3770362      0.3790282    
  0.9473529       1.055573      0.3629138      0.3790282    
  0.9182250       1.089058      0.3862984      0.3790282    
  0.8899927       1.123605      0.4255732      0.3556845    
  0.8626285       1.159248      0.4261804      0.3556845    
  0.8361056       1.196021      0.3988329      0.3351043    
  0.8103982       1.233961      0.3718189      0.3351043    
  0.7854812       1.273105      0.3636657      0.3351043    
  0.7613303       1.313490      0.3603342      0.3174917    
  0.7379220       1.355157      0.3333926      0.3174917    
  0.7152334       1.398145      0.3087998      0.3174917    
  0.6932424       1.442497      0.2903212      0.3012843    
  0.6719276       1.488256      0.2688755      0.3012843    
  0.6512681       1.535466      0.2695454      0.3012843    
  0.6312438       1.584174      0.2421813      0.2879544    
  0.6118352       1.634427      0.2210926      0.2879544    
  0.5930234       1.686274      0.1852505      0.2879544    
  0.5747899       1.739766      0.1507853      0.2879544    
  0.5571171       1.794955      0.1283371      0.2768882    
  0.5399877       1.851894      0.1096989      0.2768882    
  0.5233849       1.910640      0.1007305      0.2768882    
  0.5072926       1.971249      9.6954525E-02  0.2768882    
  0.4916950       2.033781      9.3017645E-02  0.2669910    
  0.4765771       2.098296      8.7074801E-02  0.2669910    
  0.4619240       2.164858      8.2655832E-02  0.2669910    
  0.4477214       2.233532      8.3171219E-02  0.2669910    
  0.4339555       2.304384      7.8745201E-02  0.2558390    
  0.4206128       2.377483      6.8835713E-02  0.2558390    
  0.4076804       2.452902      6.5942809E-02  0.2558390    
  0.3951457       2.530712      6.7551978E-02  0.2558390    
  0.3829963       2.610991      7.1506731E-02  0.2442108    
  0.3712204       2.693817      6.7195900E-02  0.2442108    
  0.3598067       2.779270      6.2054269E-02  0.2442108    
  0.3487439       2.867434      5.4483198E-02  0.2442108    
  0.3380212       2.958395      4.7268227E-02  0.2442108    
  0.3276282       3.052241      4.0868372E-02  0.2442108    
  0.3175547       3.149064      3.5360157E-02  0.2331065    
  0.3077910       3.248958      3.3363044E-02  0.2331065    
  0.2983274       3.352021      3.2725938E-02  0.2331065    
  0.2891549       3.458354      3.0859062E-02  0.2331065    
  0.2802644       3.568060      2.7539233E-02  0.2331065    
  0.2716472       3.681245      2.5205186E-02  0.2331065    
  0.2632950       3.798022      2.5629010E-02  0.2228468    
  0.2551996       3.918502      2.5550619E-02  0.2228468    
  0.2473530       4.042805      2.4979299E-02  0.2228468    
  0.2397478       4.171050      2.3880517E-02  0.2228468    
  0.2323764       4.303364      2.2333700E-02  0.2228468    
  0.2252316       4.439875      2.0502225E-02  0.2228468    
  0.2183065       4.580716      1.8531196E-02  0.2228468    
  0.2115943       4.726026      1.6666414E-02  0.2132297    
  0.2050885       4.875944      1.4983962E-02  0.2132297    
  0.1987827       5.030619      1.3476256E-02  0.2132297    
  0.1926708       5.190199      1.2466272E-02  0.2132297    
  0.1867469       5.354843      1.2129149E-02  0.2132297    
  0.1810050       5.524709      1.1523967E-02  0.2132297    
  0.1754397       5.699963      1.0696393E-02  0.2132297    
  0.1700456       5.880777      9.7800149E-03  0.2132297    
  0.1648172       6.067327      8.8703642E-03  0.2132297    
  0.1597497       6.259794      7.9683987E-03  0.2043760    
  0.1548379       6.458367      7.1324920E-03  0.2043760    
  0.1500772       6.663239      6.3999579E-03  0.2043760    
  0.1454628       6.874609      5.7349871E-03  0.2043760    
  0.1409903       7.092686      5.1090908E-03  0.2043760    
  0.1366553       7.317679      4.5378590E-03  0.2043760    
  0.1324537       7.549810      4.0430431E-03  0.2043760    
  0.1283812       7.789305      3.7850256E-03  0.2043760    
  0.1244339       8.036396      3.7224635E-03  0.2043760    
  0.1206080       8.291327      3.6337911E-03  0.2043760    
  0.1168997       8.554343      3.5134254E-03  0.2043760    
  0.1133054       8.825704      3.3839226E-03  0.2043760    
  0.1098217       9.105672      3.2337874E-03  0.1959686    
  0.1064450       9.394522      3.0654306E-03  0.1959686    
  0.1031722       9.692533      2.8874676E-03  0.1959686    
  0.1000000       10.00000      2.6963339E-03  0.1959686    
