 Calculated PSA for the frequency range: 
 Station:   MNT 
 Component: BHN
  0.1000000      Hz and    50.00000      Hz
         200 frequencies distributed logarithmically
 Oscillator damping is   5.000000     % of critical
  Freq.(Hz)       Period(s)      PSA(cm/s^2)  Smooth PSA(cm/s^2)
   50.00000      1.9999998E-02   2.048536       2.048536    
   48.46267      2.0634437E-02   1.964973       1.983995    
   46.97261      2.1289000E-02   2.003018       2.005410    
   45.52837      2.1964328E-02   2.048240       2.046234    
   44.12852      2.2661081E-02   2.087445       2.091980    
   42.77172      2.3379933E-02   2.140256       2.142156    
   41.45663      2.4121592E-02   2.198767       2.199142    
   40.18199      2.4886772E-02   2.258402       2.258993    
   38.94653      2.5676232E-02   2.319809       2.320809    
   37.74905      2.6490729E-02   2.384218       2.384895    
   36.58840      2.7331069E-02   2.450657       2.447803    
   35.46343      2.8198060E-02   2.508534       2.503801    
   34.37305      2.9092560E-02   2.552212       2.559241    
   33.31620      3.0015431E-02   2.616976       2.641412    
   32.29184      3.0967580E-02   2.755047       2.730210    
   31.29897      3.1949930E-02   2.818607       2.741895    
   30.33664      3.2963444E-02   2.652030       2.748073    
   29.40389      3.4009106E-02   2.773581       2.769960    
   28.49982      3.5087943E-02   2.884269       2.944647    
   27.62355      3.6201000E-02   3.176091       2.989199    
   26.77422      3.7349366E-02   2.907237       2.920459    
   25.95100      3.8534161E-02   2.678047       2.681491    
   25.15310      3.9756540E-02   2.459187       2.620684    
   24.37972      4.1017693E-02   2.724818       2.809209    
   23.63013      4.2318851E-02   3.079015       2.813046    
   22.90358      4.3661289E-02   2.973817       2.687252    
   22.19938      4.5046311E-02   2.474535       2.587347    
   21.51682      4.6475261E-02   2.184072       2.406709    
   20.85525      4.7949549E-02   2.225293       2.269419    
   20.21403      4.9470600E-02   2.175826       2.253902    
   19.59251      5.1039908E-02   2.287371       2.415464    
   18.99011      5.2658990E-02   2.396949       2.744051    
   18.40623      5.4329433E-02   2.991881       3.135024    
   17.84030      5.6052871E-02   3.868229       3.488894    
   17.29177      5.7830978E-02   4.130691       3.908843    
   16.76011      5.9665482E-02   4.056720       4.505791    
   16.24479      6.1558187E-02   4.496696       4.807925    
   15.74532      6.3510932E-02   5.064413       5.000152    
   15.26120      6.5525629E-02   5.417994       5.220364    
   14.79198      6.7604221E-02   5.681036       5.762355    
   14.33717      6.9748759E-02   5.284050       6.241782    
   13.89635      7.1961328E-02   6.541642       6.722347    
   13.46909      7.4244082E-02   7.850657       7.101449    
   13.05496      7.6599240E-02   7.852684       7.262755    
   12.65356      7.9029121E-02   8.428362       7.150177    
   12.26451      8.1536077E-02   8.071714       7.058222    
   11.88742      8.4122561E-02   6.810173       6.736470    
   11.52192      8.6791091E-02   5.880141       6.518269    
   11.16766      8.9544266E-02   5.766046       6.446775    
   10.82429      9.2384785E-02   5.806000       6.062568    
   10.49148      9.5315412E-02   5.276639       5.701479    
   10.16891      9.8338999E-02   6.107074       5.215955    
   9.856246      0.1014585       5.874827       5.067035    
   9.553200      0.1046770       4.970493       4.872456    
   9.259472      0.1079975       4.821913       4.669902    
   8.974774      0.1114234       3.754472       4.535974    
   8.698831      0.1149580       3.901947       4.402389    
   8.431372      0.1186047       4.390945       4.173138    
   8.172135      0.1223670       3.820251       3.920315    
   7.920870      0.1262487       3.780458       3.768703    
   7.677330      0.1302536       3.937361       3.605916    
   7.441278      0.1343855       3.915029       3.488618    
   7.212485      0.1386485       3.553896       3.425810    
   6.990726      0.1430467       3.356069       3.348484    
   6.775784      0.1475844       2.840940       3.212076    
   6.567452      0.1522661       3.151158       3.155697    
   6.365525      0.1570962       2.868472       3.085484    
   6.169807      0.1620796       2.977722       2.974762    
   5.980107      0.1672211       2.857783       2.868647    
   5.796239      0.1725257       2.609306       2.749867    
   5.618024      0.1779985       2.819378       2.650607    
   5.445289      0.1836450       2.862367       2.506091    
   5.277865      0.1894706       2.830950       2.455822    
   5.115589      0.1954809       2.974572       2.335576    
   4.958302      0.2016820       2.727255       2.247452    
   4.805851      0.2080797       2.276547       2.171128    
   4.658087      0.2146804       2.132824       2.053298    
   4.514867      0.2214905       2.012739       2.009287    
   4.376050      0.2285166       1.895763       1.877903    
   4.241501      0.2357656       1.866472       1.800043    
   4.111090      0.2432445       1.754730       1.676545    
   3.984688      0.2509607       1.650657       1.597605    
   3.862172      0.2589217       1.550979       1.510473    
   3.743424      0.2671351       1.433743       1.391609    
   3.628326      0.2756092       1.458103       1.329500    
   3.516768      0.2843520       1.388684       1.243588    
   3.408639      0.2933722       1.341989       1.138662    
   3.303835      0.3026786       1.385975       1.052266    
   3.202253      0.3122801       1.288450       1.013304    
   3.103795      0.3221862       1.085039      0.9434781    
   3.008364      0.3324066      0.9587628      0.8752156    
   2.915867      0.3429512      0.8864831      0.8401774    
   2.826214      0.3538303      0.8185341      0.7819304    
   2.739317      0.3650545      0.8413654      0.7243367    
   2.655093      0.3766347      0.8141015      0.6974845    
   2.573457      0.3885823      0.6810981      0.6487019    
   2.494333      0.4009089      0.6195437      0.6210278    
   2.417640      0.4136265      0.5969237      0.5713326    
   2.343306      0.4267475      0.5710998      0.5362518    
   2.271257      0.4402848      0.5610114      0.5163521    
   2.201424      0.4542515      0.4753815      0.4783238    
   2.133738      0.4686611      0.5066810      0.4593494    
   2.068133      0.4835280      0.4831192      0.4170371    
   2.004544      0.4988664      0.4573441      0.3779948    
   1.942912      0.5146915      0.3657308      0.3583544    
   1.883174      0.5310184      0.3569331      0.3257097    
   1.825273      0.5478634      0.3799824      0.3018746    
   1.769152      0.5652427      0.4048662      0.2679439    
   1.714756      0.5831733      0.4139125      0.2489505    
   1.662033      0.6016726      0.4065680      0.2163320    
   1.610931      0.6207589      0.3654868      0.1930117    
   1.561401      0.6404505      0.3188855      0.1780333    
   1.513393      0.6607669      0.2481465      0.1780333    
   1.466861      0.6817277      0.2224756      0.1708707    
   1.421760      0.7033534      0.2315428      0.1708707    
   1.378046      0.7256652      0.2671868      0.1642446    
   1.335676      0.7486846      0.2553660      0.1642446    
   1.294608      0.7724344      0.2159188      0.1581298    
   1.254804      0.7969375      0.1863305      0.1581298    
   1.216223      0.8222179      0.1715757      0.1516842    
   1.178828      0.8483002      0.1761587      0.1516842    
   1.142583      0.8752099      0.1870190      0.1453754    
   1.107453      0.9029732      0.2163262      0.1453754    
   1.073402      0.9316174      0.2356151      0.1402242    
   1.040399      0.9611701      0.2408393      0.1402242    
   1.008410      0.9916603      0.2243161      0.1402242    
  0.9774047       1.023118      0.2038472      0.1355706    
  0.9473529       1.055573      0.1829717      0.1355706    
  0.9182250       1.089058      0.1702192      0.1355706    
  0.8899927       1.123605      0.2065301      0.1310476    
  0.8626285       1.159248      0.2319059      0.1310476    
  0.8361056       1.196021      0.2261178      0.1266906    
  0.8103982       1.233961      0.1954888      0.1266906    
  0.7854812       1.273105      0.1722613      0.1266906    
  0.7613303       1.313490      0.1639385      0.1223474    
  0.7379220       1.355157      0.1547414      0.1223474    
  0.7152334       1.398145      0.1322699      0.1223474    
  0.6932424       1.442497      0.1121933      0.1187814    
  0.6719276       1.488256      0.1318387      0.1187814    
  0.6512681       1.535466      0.1283734      0.1187814    
  0.6312438       1.584174      9.7859979E-02  0.1148232    
  0.6118352       1.634427      9.2027590E-02  0.1148232    
  0.5930234       1.686274      8.1651583E-02  0.1148232    
  0.5747899       1.739766      6.8184681E-02  0.1148232    
  0.5571171       1.794955      5.4674588E-02  0.1110264    
  0.5399877       1.851894      5.6249578E-02  0.1110264    
  0.5233849       1.910640      5.3779542E-02  0.1110264    
  0.5072926       1.971249      5.4469395E-02  0.1110264    
  0.4916950       2.033781      5.1958829E-02  0.1074189    
  0.4765771       2.098296      5.0749820E-02  0.1074189    
  0.4619240       2.164858      5.4872651E-02  0.1074189    
  0.4477214       2.233532      5.8133304E-02  0.1074189    
  0.4339555       2.304384      5.2451953E-02  0.1046998    
  0.4206128       2.377483      4.2483203E-02  0.1046998    
  0.4076804       2.452902      3.4233078E-02  0.1046998    
  0.3951457       2.530712      3.5398994E-02  0.1046998    
  0.3829963       2.610991      2.9691262E-02  0.1020165    
  0.3712204       2.693817      2.7695557E-02  0.1020165    
  0.3598067       2.779270      2.7256837E-02  0.1020165    
  0.3487439       2.867434      2.6195185E-02  0.1020165    
  0.3380212       2.958395      2.6956793E-02  0.1020165    
  0.3276282       3.052241      2.8829195E-02  0.1020165    
  0.3175547       3.149064      3.0674191E-02  9.9027626E-02
  0.3077910       3.248958      2.8943922E-02  9.9027626E-02
  0.2983274       3.352021      2.7016237E-02  9.9027626E-02
  0.2891549       3.458354      2.7751097E-02  9.9027626E-02
  0.2802644       3.568060      3.1231424E-02  9.9027626E-02
  0.2716472       3.681245      3.5278428E-02  9.9027626E-02
  0.2632950       3.798022      3.7409548E-02  9.5703289E-02
  0.2551996       3.918502      3.7046622E-02  9.5703289E-02
  0.2473530       4.042805      3.5479434E-02  9.5703289E-02
  0.2397478       4.171050      3.2543495E-02  9.5703289E-02
  0.2323764       4.303364      2.9660394E-02  9.5703289E-02
  0.2252316       4.439875      2.6715139E-02  9.5703289E-02
  0.2183065       4.580716      2.4322953E-02  9.5703289E-02
  0.2115943       4.726026      2.3163201E-02  9.2206486E-02
  0.2050885       4.875944      2.2594893E-02  9.2206486E-02
  0.1987827       5.030619      2.1694228E-02  9.2206486E-02
  0.1926708       5.190199      2.0741196E-02  9.2206486E-02
  0.1867469       5.354843      2.0724164E-02  9.2206486E-02
  0.1810050       5.524709      2.0214111E-02  9.2206486E-02
  0.1754397       5.699963      1.9003432E-02  9.2206486E-02
  0.1700456       5.880777      1.7471716E-02  9.2206486E-02
  0.1648172       6.067327      1.5692402E-02  9.2206486E-02
  0.1597497       6.259794      1.3784135E-02  8.8713579E-02
  0.1548379       6.458367      1.1943334E-02  8.8713579E-02
  0.1500772       6.663239      1.0507325E-02  8.8713579E-02
  0.1454628       6.874609      9.6286796E-03  8.8713579E-02
  0.1409903       7.092686      8.8273408E-03  8.8713579E-02
  0.1366553       7.317679      8.1236986E-03  8.8713579E-02
  0.1324537       7.549810      7.5343386E-03  8.8713579E-02
  0.1283812       7.789305      7.0256819E-03  8.8713579E-02
  0.1244339       8.036396      6.5387650E-03  8.8713579E-02
  0.1206080       8.291327      6.0564913E-03  8.8713579E-02
  0.1168997       8.554343      5.5826302E-03  8.8713579E-02
  0.1133054       8.825704      5.1545203E-03  8.8713579E-02
  0.1098217       9.105672      4.7366847E-03  8.5603766E-02
  0.1064450       9.394522      4.3140594E-03  8.5603766E-02
  0.1031722       9.692533      3.9002674E-03  8.5603766E-02
  0.1000000       10.00000      3.5024630E-03  8.5603766E-02
