 Calculated PSA for the frequency range: 
 Station:   BRCO
 Component: HHE
  0.1000000      Hz and    50.00000      Hz
         200 frequencies distributed logarithmically
 Oscillator damping is   5.000000     % of critical
  Freq.(Hz)       Period(s)      PSA(cm/s^2)  Smooth PSA(cm/s^2)
   50.00000      1.9999998E-02   1.080254       1.080254    
   48.46267      2.0634437E-02   1.081098       1.081529    
   46.97261      2.1289000E-02   1.081960       1.081938    
   45.52837      2.1964328E-02   1.082755       1.082688    
   44.12852      2.2661081E-02   1.083347       1.083237    
   42.77172      2.3379933E-02   1.083609       1.083459    
   41.45663      2.4121592E-02   1.083422       1.082951    
   40.18199      2.4886772E-02   1.081823       1.081265    
   38.94653      2.5676232E-02   1.078552       1.079292    
   37.74905      2.6490729E-02   1.077501       1.078874    
   36.58840      2.7331069E-02   1.080570       1.081809    
   35.46343      2.8198060E-02   1.087355       1.086600    
   34.37305      2.9092560E-02   1.091875       1.091377    
   33.31620      3.0015431E-02   1.094902       1.093978    
   32.29184      3.0967580E-02   1.095156       1.095503    
   31.29897      3.1949930E-02   1.096451       1.097982    
   30.33664      3.2963444E-02   1.102339       1.102327    
   29.40389      3.4009106E-02   1.108191       1.105134    
   28.49982      3.5087943E-02   1.104870       1.104984    
   27.62355      3.6201000E-02   1.101892       1.100463    
   26.77422      3.7349366E-02   1.094627       1.096999    
   25.95100      3.8534161E-02   1.094479       1.098140    
   25.15310      3.9756540E-02   1.105314       1.105830    
   24.37972      4.1017693E-02   1.117696       1.121716    
   23.63013      4.2318851E-02   1.125968       1.134077    
   22.90358      4.3661289E-02   1.137884       1.140902    
   22.19938      4.5046311E-02   1.154759       1.151979    
   21.51682      4.6475261E-02   1.168203       1.161300    
   20.85525      4.7949549E-02   1.173082       1.167752    
   20.21403      4.9470600E-02   1.172571       1.172189    
   19.59251      5.1039908E-02   1.170146       1.170972    
   18.99011      5.2658990E-02   1.176945       1.170845    
   18.40623      5.4329433E-02   1.162115       1.177727    
   17.84030      5.6052871E-02   1.172447       1.192301    
   17.29177      5.7830978E-02   1.206981       1.207006    
   16.76011      5.9665482E-02   1.243019       1.228923    
   16.24479      6.1558187E-02   1.250470       1.245547    
   15.74532      6.3510932E-02   1.254278       1.263900    
   15.26120      6.5525629E-02   1.246342       1.272899    
   14.79198      6.7604221E-02   1.272192       1.295028    
   14.33717      6.9748759E-02   1.317098       1.317015    
   13.89635      7.1961328E-02   1.326895       1.342085    
   13.46909      7.4244082E-02   1.397919       1.376650    
   13.05496      7.6599240E-02   1.404382       1.409319    
   12.65356      7.9029121E-02   1.429764       1.471573    
   12.26451      8.1536077E-02   1.488303       1.525940    
   11.88742      8.4122561E-02   1.500872       1.564637    
   11.52192      8.6791091E-02   1.552464       1.596679    
   11.16766      8.9544266E-02   1.671987       1.603683    
   10.82429      9.2384785E-02   1.761826       1.629854    
   10.49148      9.5315412E-02   1.707502       1.651024    
   10.16891      9.8338999E-02   1.660711       1.696667    
   9.856246      0.1014585       1.659719       1.745164    
   9.553200      0.1046770       1.665303       1.805779    
   9.259472      0.1079975       1.678830       1.892130    
   8.974774      0.1114234       1.713103       2.009859    
   8.698831      0.1149580       1.895225       2.193085    
   8.431372      0.1186047       2.037437       2.295278    
   8.172135      0.1223670       2.278140       2.372409    
   7.920870      0.1262487       2.625328       2.430756    
   7.677330      0.1302536       2.884797       2.492863    
   7.441278      0.1343855       3.174863       2.624214    
   7.212485      0.1386485       3.043562       2.697237    
   6.990726      0.1430467       2.887032       2.840183    
   6.775784      0.1475844       2.585286       3.128260    
   6.567452      0.1522661       2.365477       3.341084    
   6.365525      0.1570962       2.424102       3.564962    
   6.169807      0.1620796       2.708904       3.774911    
   5.980107      0.1672211       3.204633       4.073566    
   5.796239      0.1725257       3.646523       4.251350    
   5.618024      0.1779985       3.896485       4.396393    
   5.445289      0.1836450       4.286446       4.456386    
   5.277865      0.1894706       4.912326       4.403208    
   5.115589      0.1954809       5.470498       4.321368    
   4.958302      0.2016820       5.983503       4.314235    
   4.805851      0.2080797       6.034023       4.298111    
   4.658087      0.2146804       6.120166       4.149764    
   4.514867      0.2214905       6.506794       4.040606    
   4.376050      0.2285166       6.197196       3.872541    
   4.241501      0.2357656       5.509292       3.797380    
   4.111090      0.2432445       4.652481       3.626834    
   3.984688      0.2509607       3.710806       3.500016    
   3.862172      0.2589217       3.446010       3.420712    
   3.743424      0.2671351       2.943688       3.269288    
   3.628326      0.2756092       2.408011       3.177483    
   3.516768      0.2843520       2.222813       3.062689    
   3.408639      0.2933722       2.101629       2.919857    
   3.303835      0.3026786       2.024836       2.785656    
   3.202253      0.3122801       1.866882       2.717590    
   3.103795      0.3221862       1.748276       2.530799    
   3.008364      0.3324066       1.639800       2.325931    
   2.915867      0.3429512       1.739964       2.247881    
   2.826214      0.3538303       1.917821       2.064887    
   2.739317      0.3650545       1.853065       1.901796    
   2.655093      0.3766347       1.747697       1.831195    
   2.573457      0.3885823       1.841139       1.696728    
   2.494333      0.4009089       2.115256       1.604811    
   2.417640      0.4136265       2.224545       1.474611    
   2.343306      0.4267475       2.236763       1.381892    
   2.271257      0.4402848       2.007808       1.311155    
   2.201424      0.4542515       1.831946       1.214893    
   2.133738      0.4686611       2.044276       1.156486    
   2.068133      0.4835280       2.141492       1.062300    
   2.004544      0.4988664       2.395115      0.9784353    
   1.942912      0.5146915       2.366103      0.9214220    
   1.883174      0.5310184       2.528381      0.8529607    
   1.825273      0.5478634       2.265295      0.7871653    
   1.769152      0.5652427       1.840986      0.7147397    
   1.714756      0.5831733       1.484129      0.6590850    
   1.662033      0.6016726       1.339584      0.5854523    
   1.610931      0.6207589       1.147278      0.5205489    
   1.561401      0.6404505      0.9760166      0.4905802    
   1.513393      0.6607669      0.8911915      0.4905802    
   1.466861      0.6817277      0.8754849      0.4800369    
   1.421760      0.7033534      0.8885492      0.4800369    
   1.378046      0.7256652      0.7704712      0.4683709    
   1.335676      0.7486846      0.7208103      0.4683709    
   1.294608      0.7724344      0.6519011      0.4548247    
   1.254804      0.7969375      0.5617300      0.4548247    
   1.216223      0.8222179      0.4848925      0.4416337    
   1.178828      0.8483002      0.4240550      0.4416337    
   1.142583      0.8752099      0.4340273      0.4291950    
   1.107453      0.9029732      0.4020516      0.4291950    
   1.073402      0.9316174      0.3394852      0.4156186    
   1.040399      0.9611701      0.3106923      0.4156186    
   1.008410      0.9916603      0.3037496      0.4156186    
  0.9774047       1.023118      0.2778535      0.3991173    
  0.9473529       1.055573      0.2665087      0.3991173    
  0.9182250       1.089058      0.2566566      0.3991173    
  0.8899927       1.123605      0.2438823      0.3812209    
  0.8626285       1.159248      0.2262398      0.3812209    
  0.8361056       1.196021      0.1868930      0.3628492    
  0.8103982       1.233961      0.1799464      0.3628492    
  0.7854812       1.273105      0.1712468      0.3628492    
  0.7613303       1.313490      0.1626630      0.3463997    
  0.7379220       1.355157      0.1533177      0.3463997    
  0.7152334       1.398145      0.1481499      0.3463997    
  0.6932424       1.442497      0.1396270      0.3313941    
  0.6719276       1.488256      0.1259260      0.3313941    
  0.6512681       1.535466      0.1083274      0.3313941    
  0.6312438       1.584174      8.9304738E-02  0.3139157    
  0.6118352       1.634427      8.3280936E-02  0.3139157    
  0.5930234       1.686274      7.9761662E-02  0.3139157    
  0.5747899       1.739766      6.8104155E-02  0.3139157    
  0.5571171       1.794955      5.7860911E-02  0.2950748    
  0.5399877       1.851894      5.4500885E-02  0.2950748    
  0.5233849       1.910640      5.2007262E-02  0.2950748    
  0.5072926       1.971249      4.5752797E-02  0.2950748    
  0.4916950       2.033781      4.2034630E-02  0.2731993    
  0.4765771       2.098296      3.7986998E-02  0.2731993    
  0.4619240       2.164858      3.6281232E-02  0.2731993    
  0.4477214       2.233532      3.4562606E-02  0.2731993    
  0.4339555       2.304384      3.3759885E-02  0.2511688    
  0.4206128       2.377483      3.5572696E-02  0.2511688    
  0.4076804       2.452902      3.6812101E-02  0.2511688    
  0.3951457       2.530712      3.5920363E-02  0.2511688    
  0.3829963       2.610991      3.3195592E-02  0.2269431    
  0.3712204       2.693817      3.0172294E-02  0.2269431    
  0.3598067       2.779270      3.1807169E-02  0.2269431    
  0.3487439       2.867434      3.1297855E-02  0.2269431    
  0.3380212       2.958395      2.8860757E-02  0.2269431    
  0.3276282       3.052241      2.7770132E-02  0.2269431    
  0.3175547       3.149064      2.7512519E-02  0.2050254    
  0.3077910       3.248958      2.7185252E-02  0.2050254    
  0.2983274       3.352021      2.8614303E-02  0.2050254    
  0.2891549       3.458354      2.8228577E-02  0.2050254    
  0.2802644       3.568060      2.7947711E-02  0.2050254    
  0.2716472       3.681245      2.7125234E-02  0.2050254    
  0.2632950       3.798022      2.5148302E-02  0.1872432    
  0.2551996       3.918502      2.3342643E-02  0.1872432    
  0.2473530       4.042805      2.3623481E-02  0.1872432    
  0.2397478       4.171050      2.4121100E-02  0.1872432    
  0.2323764       4.303364      2.3244767E-02  0.1872432    
  0.2252316       4.439875      2.1656483E-02  0.1872432    
  0.2183065       4.580716      2.0088058E-02  0.1872432    
  0.2115943       4.726026      1.9645981E-02  0.1729917    
  0.2050885       4.875944      1.9635839E-02  0.1729917    
  0.1987827       5.030619      1.9657873E-02  0.1729917    
  0.1926708       5.190199      1.8900027E-02  0.1729917    
  0.1867469       5.354843      1.7104583E-02  0.1729917    
  0.1810050       5.524709      1.4721983E-02  0.1729917    
  0.1754397       5.699963      1.2920087E-02  0.1729917    
  0.1700456       5.880777      1.1473222E-02  0.1729917    
  0.1648172       6.067327      1.0396641E-02  0.1729917    
  0.1597497       6.259794      9.4897123E-03  0.1600295    
  0.1548379       6.458367      8.5154092E-03  0.1600295    
  0.1500772       6.663239      7.6541984E-03  0.1600295    
  0.1454628       6.874609      7.3746047E-03  0.1600295    
  0.1409903       7.092686      7.1008690E-03  0.1600295    
  0.1366553       7.317679      6.9052549E-03  0.1600295    
  0.1324537       7.549810      6.7312131E-03  0.1600295    
  0.1283812       7.789305      6.4400281E-03  0.1600295    
  0.1244339       8.036396      5.9774178E-03  0.1600295    
  0.1206080       8.291327      5.4119290E-03  0.1600295    
  0.1168997       8.554343      4.8470581E-03  0.1600295    
  0.1133054       8.825704      4.3170704E-03  0.1600295    
  0.1098217       9.105672      3.8503509E-03  0.1489369    
  0.1064450       9.394522      3.4649658E-03  0.1489369    
  0.1031722       9.692533      3.1529414E-03  0.1489369    
  0.1000000       10.00000      2.9004805E-03  0.1489369    
