 Calculated PSA for the frequency range: 
 Station:   A11 
 Component: HHE
  0.1000000      Hz and    50.00000      Hz
         200 frequencies distributed logarithmically
 Oscillator damping is   5.000000     % of critical
  Freq.(Hz)       Period(s)      PSA(cm/s^2)  Smooth PSA(cm/s^2)
   50.00000      1.9999998E-02  0.2814874      0.2814874    
   48.46267      2.0634437E-02  0.2816806      0.2817845    
   46.97261      2.1289000E-02  0.2818884      0.2819612    
   45.52837      2.1964328E-02  0.2823145      0.2824365    
   44.12852      2.2661081E-02  0.2831067      0.2830415    
   42.77172      2.3379933E-02  0.2837034      0.2835183    
   41.45663      2.4121592E-02  0.2837448      0.2837725    
   40.18199      2.4886772E-02  0.2838692      0.2839721    
   38.94653      2.5676232E-02  0.2843022      0.2842233    
   37.74905      2.6490729E-02  0.2844985      0.2843882    
   36.58840      2.7331069E-02  0.2843637      0.2845798    
   35.46343      2.8198060E-02  0.2848771      0.2849199    
   34.37305      2.9092560E-02  0.2855189      0.2854727    
   33.31620      3.0015431E-02  0.2860222      0.2868479    
   32.29184      3.0967580E-02  0.2890026      0.2892622    
   31.29897      3.1949930E-02  0.2927618      0.2921342    
   30.33664      3.2963444E-02  0.2946383      0.2943030    
   29.40389      3.4009106E-02  0.2955090      0.2960076    
   28.49982      3.5087943E-02  0.2978755      0.2977245    
   27.62355      3.6201000E-02  0.2997891      0.2986292    
   26.77422      3.7349366E-02  0.2982230      0.2980406    
   25.95100      3.8534161E-02  0.2961097      0.2964799    
   25.15310      3.9756540E-02  0.2951071      0.2955309    
   24.37972      4.1017693E-02  0.2953759      0.3008600    
   23.63013      4.2318851E-02  0.3022415      0.3064356    
   22.90358      4.3661289E-02  0.3107154      0.3093416    
   22.19938      4.5046311E-02  0.3174096      0.3156901    
   21.51682      4.6475261E-02  0.3209656      0.3212907    
   20.85525      4.7949549E-02  0.3271181      0.3240217    
   20.21403      4.9470600E-02  0.3302450      0.3259732    
   19.59251      5.1039908E-02  0.3243701      0.3258541    
   18.99011      5.2658990E-02  0.3271671      0.3255789    
   18.40623      5.4329433E-02  0.3203701      0.3256961    
   17.84030      5.6052871E-02  0.3257421      0.3291807    
   17.29177      5.7830978E-02  0.3308313      0.3358264    
   16.76011      5.9665482E-02  0.3417926      0.3484028    
   16.24479      6.1558187E-02  0.3603957      0.3528245    
   15.74532      6.3510932E-02  0.3686771      0.3570314    
   15.26120      6.5525629E-02  0.3629781      0.3594696    
   14.79198      6.7604221E-02  0.3522721      0.3660916    
   14.33717      6.9748759E-02  0.3560728      0.3696083    
   13.89635      7.1961328E-02  0.3740988      0.3733038    
   13.46909      7.4244082E-02  0.3881465      0.3809484    
   13.05496      7.6599240E-02  0.3850130      0.3898799    
   12.65356      7.9029121E-02  0.3945454      0.4052281    
   12.26451      8.1536077E-02  0.4164903      0.4152420    
   11.88742      8.4122561E-02  0.4147924      0.4255062    
   11.52192      8.6791091E-02  0.4210326      0.4370593    
   11.16766      8.9544266E-02  0.4477056      0.4380170    
   10.82429      9.2384785E-02  0.4542097      0.4440580    
   10.49148      9.5315412E-02  0.4702604      0.4502362    
   10.16891      9.8338999E-02  0.4774376      0.4599741    
   9.856246      0.1014585      0.4456781      0.4745626    
   9.553200      0.1046770      0.4489150      0.4897991    
   9.259472      0.1079975      0.4720944      0.5027500    
   8.974774      0.1114234      0.4692435      0.5101920    
   8.698831      0.1149580      0.4931642      0.5185116    
   8.431372      0.1186047      0.5669177      0.5276296    
   8.172135      0.1223670      0.6000698      0.5351147    
   7.920870      0.1262487      0.5837193      0.5404168    
   7.677330      0.1302536      0.5446810      0.5494744    
   7.441278      0.1343855      0.5219002      0.5815276    
   7.212485      0.1386485      0.5983185      0.5946285    
   6.990726      0.1430467      0.5868529      0.6133742    
   6.775784      0.1475844      0.5355002      0.6390318    
   6.567452      0.1522661      0.5125400      0.6568016    
   6.365525      0.1570962      0.5807867      0.6791863    
   6.169807      0.1620796      0.6862366      0.7087915    
   5.980107      0.1672211      0.7491713      0.7554140    
   5.796239      0.1725257      0.7649412      0.7908285    
   5.618024      0.1779985      0.7556041      0.8247155    
   5.445289      0.1836450      0.7655241      0.8876015    
   5.277865      0.1894706      0.7996310      0.9078315    
   5.115589      0.1954809      0.8666183      0.9456336    
   4.958302      0.2016820      0.9194902      0.9682400    
   4.805851      0.2080797      0.9887567      0.9817883    
   4.658087      0.2146804       1.088927      0.9729776    
   4.514867      0.2214905       1.121239      0.9605142    
   4.376050      0.2285166       1.123948      0.9433307    
   4.241501      0.2357656       1.174397      0.9351345    
   4.111090      0.2432445       1.235898      0.9098867    
   3.984688      0.2509607       1.307619      0.8824662    
   3.862172      0.2589217       1.271971      0.8710814    
   3.743424      0.2671351       1.163232      0.8433056    
   3.628326      0.2756092       1.036139      0.8159108    
   3.516768      0.2843520      0.9646648      0.7998501    
   3.408639      0.2933722      0.8517538      0.7648447    
   3.303835      0.3026786      0.7526081      0.7293499    
   3.202253      0.3122801      0.7303949      0.7040406    
   3.103795      0.3221862      0.6987818      0.6740268    
   3.008364      0.3324066      0.6819261      0.6462649    
   2.915867      0.3429512      0.6325409      0.6322130    
   2.826214      0.3538303      0.5764291      0.6044595    
   2.739317      0.3650545      0.5652104      0.5716788    
   2.655093      0.3766347      0.5195799      0.5565602    
   2.573457      0.3885823      0.5687835      0.5269547    
   2.494333      0.4009089      0.5380570      0.5109522    
   2.417640      0.4136265      0.4695175      0.4833909    
   2.343306      0.4267475      0.4609367      0.4592877    
   2.271257      0.4402848      0.4598303      0.4479775    
   2.201424      0.4542515      0.4553210      0.4220617    
   2.133738      0.4686611      0.4368400      0.4136036    
   2.068133      0.4835280      0.4008606      0.3940939    
   2.004544      0.4988664      0.3232014      0.3733409    
   1.942912      0.5146915      0.3459750      0.3579756    
   1.883174      0.5310184      0.3381632      0.3355316    
   1.825273      0.5478634      0.3150994      0.3142844    
   1.769152      0.5652427      0.2911358      0.2882102    
   1.714756      0.5831733      0.3323584      0.2665808    
   1.662033      0.6016726      0.3525583      0.2374535    
   1.610931      0.6207589      0.4199411      0.2115638    
   1.561401      0.6404505      0.4242867      0.1995747    
   1.513393      0.6607669      0.3993133      0.1995747    
   1.466861      0.6817277      0.3825593      0.1951494    
   1.421760      0.7033534      0.3900473      0.1951494    
   1.378046      0.7256652      0.3732807      0.1910995    
   1.335676      0.7486846      0.3282459      0.1910995    
   1.294608      0.7724344      0.2637666      0.1874983    
   1.254804      0.7969375      0.2366401      0.1874983    
   1.216223      0.8222179      0.2562977      0.1839350    
   1.178828      0.8483002      0.2671970      0.1839350    
   1.142583      0.8752099      0.2780747      0.1807383    
   1.107453      0.9029732      0.2709579      0.1807383    
   1.073402      0.9316174      0.2563087      0.1770071    
   1.040399      0.9611701      0.2733580      0.1770071    
   1.008410      0.9916603      0.3310847      0.1770071    
  0.9774047       1.023118      0.3527695      0.1735018    
  0.9473529       1.055573      0.3452889      0.1735018    
  0.9182250       1.089058      0.3360856      0.1735018    
  0.8899927       1.123605      0.3164825      0.1705997    
  0.8626285       1.159248      0.2819263      0.1705997    
  0.8361056       1.196021      0.2792343      0.1677251    
  0.8103982       1.233961      0.2707276      0.1677251    
  0.7854812       1.273105      0.2510796      0.1677251    
  0.7613303       1.313490      0.2307138      0.1648040    
  0.7379220       1.355157      0.2215980      0.1648040    
  0.7152334       1.398145      0.2333371      0.1648040    
  0.6932424       1.442497      0.2503839      0.1618695    
  0.6719276       1.488256      0.2696174      0.1618695    
  0.6512681       1.535466      0.2725322      0.1618695    
  0.6312438       1.584174      0.2886209      0.1590637    
  0.6118352       1.634427      0.2876828      0.1590637    
  0.5930234       1.686274      0.2771803      0.1590637    
  0.5747899       1.739766      0.2723901      0.1590637    
  0.5571171       1.794955      0.2638542      0.1565709    
  0.5399877       1.851894      0.2353049      0.1565709    
  0.5233849       1.910640      0.1994535      0.1565709    
  0.5072926       1.971249      0.1616527      0.1565709    
  0.4916950       2.033781      0.1214110      0.1548352    
  0.4765771       2.098296      0.1231837      0.1548352    
  0.4619240       2.164858      0.1232334      0.1548352    
  0.4477214       2.233532      0.1114270      0.1548352    
  0.4339555       2.304384      0.1056486      0.1528232    
  0.4206128       2.377483      9.9857233E-02  0.1528232    
  0.4076804       2.452902      8.9810804E-02  0.1528232    
  0.3951457       2.530712      8.1724055E-02  0.1528232    
  0.3829963       2.610991      7.6406702E-02  0.1508515    
  0.3712204       2.693817      7.5876161E-02  0.1508515    
  0.3598067       2.779270      7.4974440E-02  0.1508515    
  0.3487439       2.867434      7.1890786E-02  0.1508515    
  0.3380212       2.958395      6.5496594E-02  0.1508515    
  0.3276282       3.052241      5.5005722E-02  0.1508515    
  0.3175547       3.149064      4.8018865E-02  0.1490854    
  0.3077910       3.248958      4.1308302E-02  0.1490854    
  0.2983274       3.352021      4.0184721E-02  0.1490854    
  0.2891549       3.458354      3.8692418E-02  0.1490854    
  0.2802644       3.568060      3.6403097E-02  0.1490854    
  0.2716472       3.681245      3.3479724E-02  0.1490854    
  0.2632950       3.798022      2.9314898E-02  0.1475414    
  0.2551996       3.918502      2.4628816E-02  0.1475414    
  0.2473530       4.042805      2.0352079E-02  0.1475414    
  0.2397478       4.171050      1.7465567E-02  0.1475414    
  0.2323764       4.303364      1.6216673E-02  0.1475414    
  0.2252316       4.439875      1.4315676E-02  0.1475414    
  0.2183065       4.580716      1.3420507E-02  0.1475414    
  0.2115943       4.726026      1.3316812E-02  0.1455104    
  0.2050885       4.875944      1.2966267E-02  0.1455104    
  0.1987827       5.030619      1.2339268E-02  0.1455104    
  0.1926708       5.190199      1.1510800E-02  0.1455104    
  0.1867469       5.354843      1.0640684E-02  0.1455104    
  0.1810050       5.524709      9.8029971E-03  0.1455104    
  0.1754397       5.699963      9.0780314E-03  0.1455104    
  0.1700456       5.880777      8.4658507E-03  0.1455104    
  0.1648172       6.067327      7.8260088E-03  0.1455104    
  0.1597497       6.259794      7.8679053E-03  0.1432099    
  0.1548379       6.458367      8.0531808E-03  0.1432099    
  0.1500772       6.663239      7.9605225E-03  0.1432099    
  0.1454628       6.874609      7.5436425E-03  0.1432099    
  0.1409903       7.092686      7.2990377E-03  0.1432099    
  0.1366553       7.317679      6.8654455E-03  0.1432099    
  0.1324537       7.549810      6.5436065E-03  0.1432099    
  0.1283812       7.789305      6.1912234E-03  0.1432099    
  0.1244339       8.036396      5.8284095E-03  0.1432099    
  0.1206080       8.291327      5.4372111E-03  0.1432099    
  0.1168997       8.554343      5.0311545E-03  0.1432099    
  0.1133054       8.825704      4.6297903E-03  0.1432099    
  0.1098217       9.105672      4.2298543E-03  0.1401005    
  0.1064450       9.394522      3.8365321E-03  0.1401005    
  0.1031722       9.692533      3.4672979E-03  0.1401005    
  0.1000000       10.00000      3.1348672E-03  0.1401005    
