 Calculated PSA for the frequency range: 
 Station:   GGN 
 Component: BHN
  0.1000000      Hz and    50.00000      Hz
         200 frequencies distributed logarithmically
 Oscillator damping is   5.000000     % of critical
  Freq.(Hz)       Period(s)      PSA(cm/s^2)  Smooth PSA(cm/s^2)
   50.00000      1.9999998E-02  0.2085586      0.2085586    
   48.46267      2.0634437E-02  0.2115180      0.2117019    
   46.97261      2.1289000E-02  0.2118858      0.2098758    
   45.52837      2.1964328E-02  0.2062237      0.2060036    
   44.12852      2.2661081E-02  0.1999015      0.2014885    
   42.77172      2.3379933E-02  0.1983404      0.1992599    
   41.45663      2.4121592E-02  0.1995377      0.1997545    
   40.18199      2.4886772E-02  0.2013855      0.2014558    
   38.94653      2.5676232E-02  0.2034442      0.2031935    
   37.74905      2.6490729E-02  0.2047508      0.2052242    
   36.58840      2.7331069E-02  0.2074775      0.2079298    
   35.46343      2.8198060E-02  0.2115613      0.2116310    
   34.37305      2.9092560E-02  0.2158543      0.2146247    
   33.31620      3.0015431E-02  0.2164585      0.2142648    
   32.29184      3.0967580E-02  0.2104815      0.2101240    
   31.29897      3.1949930E-02  0.2034320      0.2043805    
   30.33664      3.2963444E-02  0.1992281      0.1994536    
   29.40389      3.4009106E-02  0.1957007      0.1959573    
   28.49982      3.5087943E-02  0.1929432      0.1934868    
   27.62355      3.6201000E-02  0.1918166      0.1931655    
   26.77422      3.7349366E-02  0.1947367      0.1946593    
   25.95100      3.8534161E-02  0.1974247      0.1971667    
   25.15310      3.9756540E-02  0.1993387      0.1990618    
   24.37972      4.1017693E-02  0.2004220      0.1984221    
   23.63013      4.2318851E-02  0.1989510      0.1971648    
   22.90358      4.3661289E-02  0.1949768      0.1971972    
   22.19938      4.5046311E-02  0.1943094      0.1969695    
   21.51682      4.6475261E-02  0.1973269      0.1973356    
   20.85525      4.7949549E-02  0.1992832      0.1987824    
   20.21403      4.9470600E-02  0.2007816      0.2007073    
   19.59251      5.1039908E-02  0.2022110      0.2026770    
   18.99011      5.2658990E-02  0.2039337      0.2053286    
   18.40623      5.4329433E-02  0.2071755      0.2083553    
   17.84030      5.6052871E-02  0.2125413      0.2124401    
   17.29177      5.7830978E-02  0.2159149      0.2163108    
   16.76011      5.9665482E-02  0.2226350      0.2202013    
   16.24479      6.1558187E-02  0.2232872      0.2222728    
   15.74532      6.3510932E-02  0.2224158      0.2234684    
   15.26120      6.5525629E-02  0.2244138      0.2228554    
   14.79198      6.7604221E-02  0.2249699      0.2226041    
   14.33717      6.9748759E-02  0.2230886      0.2238230    
   13.89635      7.1961328E-02  0.2191773      0.2279558    
   13.46909      7.4244082E-02  0.2208759      0.2336654    
   13.05496      7.6599240E-02  0.2318197      0.2379837    
   12.65356      7.9029121E-02  0.2513454      0.2529564    
   12.26451      8.1536077E-02  0.2643812      0.2637922    
   11.88742      8.4122561E-02  0.2551979      0.2718824    
   11.52192      8.6791091E-02  0.2742044      0.2781969    
   11.16766      8.9544266E-02  0.3066495      0.2807357    
   10.82429      9.2384785E-02  0.3058636      0.2871821    
   10.49148      9.5315412E-02  0.2855975      0.2906757    
   10.16891      9.8338999E-02  0.2823358      0.2990872    
   9.856246      0.1014585      0.3010462      0.3084115    
   9.553200      0.1046770      0.3093624      0.3140085    
   9.259472      0.1079975      0.2958236      0.3211173    
   8.974774      0.1114234      0.3035553      0.3339885    
   8.698831      0.1149580      0.3264336      0.3666010    
   8.431372      0.1186047      0.3674475      0.3892817    
   8.172135      0.1223670      0.3626199      0.4124352    
   7.920870      0.1262487      0.3769516      0.4375286    
   7.677330      0.1302536      0.4143092      0.4559310    
   7.441278      0.1343855      0.4987491      0.4747638    
   7.212485      0.1386485      0.5605780      0.4740478    
   6.990726      0.1430467      0.5545045      0.4830877    
   6.775784      0.1475844      0.5788870      0.4783613    
   6.567452      0.1522661      0.6104835      0.4789852    
   6.365525      0.1570962      0.5166536      0.4827732    
   6.169807      0.1620796      0.4873222      0.4871632    
   5.980107      0.1672211      0.5169896      0.4903652    
   5.796239      0.1725257      0.4647405      0.4979307    
   5.618024      0.1779985      0.4529915      0.5077687    
   5.445289      0.1836450      0.4094139      0.5378990    
   5.277865      0.1894706      0.3702263      0.5540314    
   5.115589      0.1954809      0.3719769      0.5731978    
   4.958302      0.2016820      0.4337729      0.5782009    
   4.805851      0.2080797      0.4801589      0.5866872    
   4.658087      0.2146804      0.4947070      0.5921550    
   4.514867      0.2214905      0.5340531      0.5916486    
   4.376050      0.2285166      0.6273624      0.5939619    
   4.241501      0.2357656      0.7278231      0.5995678    
   4.111090      0.2432445      0.7780334      0.6000878    
   3.984688      0.2509607      0.8265868      0.5897067    
   3.862172      0.2589217      0.8444139      0.5926763    
   3.743424      0.2671351      0.7807987      0.5974777    
   3.628326      0.2756092      0.7354484      0.5968125    
   3.516768      0.2843520      0.7105446      0.6044948    
   3.408639      0.2933722      0.6863804      0.6078643    
   3.303835      0.3026786      0.6128942      0.6088465    
   3.202253      0.3122801      0.5759380      0.6066974    
   3.103795      0.3221862      0.5810159      0.6039841    
   3.008364      0.3324066      0.5825511      0.5918667    
   2.915867      0.3429512      0.5792924      0.5773527    
   2.826214      0.3538303      0.5936759      0.5665386    
   2.739317      0.3650545      0.5550774      0.5523405    
   2.655093      0.3766347      0.5099623      0.5396698    
   2.573457      0.3885823      0.4439124      0.5251510    
   2.494333      0.4009089      0.4863530      0.5111458    
   2.417640      0.4136265      0.4866242      0.4864303    
   2.343306      0.4267475      0.5328900      0.4668407    
   2.271257      0.4402848      0.5596509      0.4516930    
   2.201424      0.4542515      0.5888742      0.4298885    
   2.133738      0.4686611      0.5867879      0.4128919    
   2.068133      0.4835280      0.5947626      0.3857989    
   2.004544      0.4988664      0.5820734      0.3618075    
   1.942912      0.5146915      0.5572780      0.3445089    
   1.883174      0.5310184      0.5487019      0.3222816    
   1.825273      0.5478634      0.5697732      0.2996939    
   1.769152      0.5652427      0.5812752      0.2755521    
   1.714756      0.5831733      0.5654937      0.2547643    
   1.662033      0.6016726      0.5332407      0.2279964    
   1.610931      0.6207589      0.4759119      0.2028113    
   1.561401      0.6404505      0.3945520      0.1920717    
   1.513393      0.6607669      0.3193806      0.1920717    
   1.466861      0.6817277      0.3046952      0.1884893    
   1.421760      0.7033534      0.3420169      0.1884893    
   1.378046      0.7256652      0.3870957      0.1848708    
   1.335676      0.7486846      0.4066877      0.1848708    
   1.294608      0.7724344      0.3914472      0.1810502    
   1.254804      0.7969375      0.3491888      0.1810502    
   1.216223      0.8222179      0.2902855      0.1775216    
   1.178828      0.8483002      0.2948976      0.1775216    
   1.142583      0.8752099      0.3448145      0.1743555    
   1.107453      0.9029732      0.3630970      0.1743555    
   1.073402      0.9316174      0.3416106      0.1717636    
   1.040399      0.9611701      0.3161612      0.1717636    
   1.008410      0.9916603      0.2874444      0.1717636    
  0.9774047       1.023118      0.2569736      0.1687094    
  0.9473529       1.055573      0.2266830      0.1687094    
  0.9182250       1.089058      0.2035941      0.1687094    
  0.8899927       1.123605      0.1970976      0.1655926    
  0.8626285       1.159248      0.1934439      0.1655926    
  0.8361056       1.196021      0.1921396      0.1619559    
  0.8103982       1.233961      0.2090642      0.1619559    
  0.7854812       1.273105      0.2267892      0.1619559    
  0.7613303       1.313490      0.2191156      0.1579790    
  0.7379220       1.355157      0.1739257      0.1579790    
  0.7152334       1.398145      0.1355021      0.1579790    
  0.6932424       1.442497      0.1216591      0.1536265    
  0.6719276       1.488256      0.1146194      0.1536265    
  0.6512681       1.535466      0.1015798      0.1536265    
  0.6312438       1.584174      9.9439159E-02  0.1492065    
  0.6118352       1.634427      9.3234092E-02  0.1492065    
  0.5930234       1.686274      9.2161871E-02  0.1492065    
  0.5747899       1.739766      9.0802349E-02  0.1492065    
  0.5571171       1.794955      8.8996835E-02  0.1446131    
  0.5399877       1.851894      9.4904803E-02  0.1446131    
  0.5233849       1.910640      0.1016222      0.1446131    
  0.5072926       1.971249      9.4951011E-02  0.1446131    
  0.4916950       2.033781      9.2408985E-02  0.1400563    
  0.4765771       2.098296      8.3232008E-02  0.1400563    
  0.4619240       2.164858      6.9584899E-02  0.1400563    
  0.4477214       2.233532      6.0299538E-02  0.1400563    
  0.4339555       2.304384      5.5391070E-02  0.1356644    
  0.4206128       2.377483      4.8845425E-02  0.1356644    
  0.4076804       2.452902      4.2829394E-02  0.1356644    
  0.3951457       2.530712      3.9156340E-02  0.1356644    
  0.3829963       2.610991      3.8600147E-02  0.1312704    
  0.3712204       2.693817      3.8353685E-02  0.1312704    
  0.3598067       2.779270      3.9803285E-02  0.1312704    
  0.3487439       2.867434      4.2524964E-02  0.1312704    
  0.3380212       2.958395      4.2108644E-02  0.1312704    
  0.3276282       3.052241      3.8216542E-02  0.1312704    
  0.3175547       3.149064      3.2733634E-02  0.1265553    
  0.3077910       3.248958      2.9985161E-02  0.1265553    
  0.2983274       3.352021      3.0559003E-02  0.1265553    
  0.2891549       3.458354      3.0207627E-02  0.1265553    
  0.2802644       3.568060      2.9267274E-02  0.1265553    
  0.2716472       3.681245      2.7273972E-02  0.1265553    
  0.2632950       3.798022      2.4262890E-02  0.1216127    
  0.2551996       3.918502      2.0853112E-02  0.1216127    
  0.2473530       4.042805      1.8734328E-02  0.1216127    
  0.2397478       4.171050      1.6945682E-02  0.1216127    
  0.2323764       4.303364      1.5035825E-02  0.1216127    
  0.2252316       4.439875      1.3103444E-02  0.1216127    
  0.2183065       4.580716      1.1387781E-02  0.1216127    
  0.2115943       4.726026      9.9100620E-03  0.1167349    
  0.2050885       4.875944      9.2645269E-03  0.1167349    
  0.1987827       5.030619      8.7241912E-03  0.1167349    
  0.1926708       5.190199      8.2330732E-03  0.1167349    
  0.1867469       5.354843      7.7808625E-03  0.1167349    
  0.1810050       5.524709      7.3627508E-03  0.1167349    
  0.1754397       5.699963      6.8806787E-03  0.1167349    
  0.1700456       5.880777      6.6433083E-03  0.1167349    
  0.1648172       6.067327      6.3047586E-03  0.1167349    
  0.1597497       6.259794      5.6364918E-03  0.1121071    
  0.1548379       6.458367      4.8825452E-03  0.1121071    
  0.1500772       6.663239      4.4085048E-03  0.1121071    
  0.1454628       6.874609      3.9729881E-03  0.1121071    
  0.1409903       7.092686      3.5653990E-03  0.1121071    
  0.1366553       7.317679      3.2024460E-03  0.1121071    
  0.1324537       7.549810      3.0563476E-03  0.1121071    
  0.1283812       7.789305      2.8562418E-03  0.1121071    
  0.1244339       8.036396      2.6207624E-03  0.1121071    
  0.1206080       8.291327      2.3813113E-03  0.1121071    
  0.1168997       8.554343      2.3130262E-03  0.1121071    
  0.1133054       8.825704      2.2476432E-03  0.1121071    
  0.1098217       9.105672      2.1826634E-03  0.1080194    
  0.1064450       9.394522      2.1018782E-03  0.1080194    
  0.1031722       9.692533      1.9853476E-03  0.1080194    
  0.1000000       10.00000      1.8288197E-03  0.1080194    
