 Calculated PSA for the frequency range: 
 Station:   UWOO
 Component: HHZ
  0.1000000      Hz and    50.00000      Hz
         200 frequencies distributed logarithmically
 Oscillator damping is   5.000000     % of critical
  Freq.(Hz)       Period(s)      PSA(cm/s^2)  Smooth PSA(cm/s^2)
   50.00000      1.9999998E-02  0.2752602      0.2752602    
   48.46267      2.0634437E-02  0.2767592      0.2772149    
   46.97261      2.1289000E-02  0.2776707      0.2773057    
   45.52837      2.1964328E-02  0.2774872      0.2788818    
   44.12852      2.2661081E-02  0.2814877      0.2827638    
   42.77172      2.3379933E-02  0.2893166      0.2876174    
   41.45663      2.4121592E-02  0.2920478      0.2922168    
   40.18199      2.4886772E-02  0.2952861      0.2947751    
   38.94653      2.5676232E-02  0.2969915      0.2972288    
   37.74905      2.6490729E-02  0.2994089      0.3096330    
   36.58840      2.7331069E-02  0.3324988      0.3368586    
   35.46343      2.8198060E-02  0.3786682      0.3717027    
   34.37305      2.9092560E-02  0.4039412      0.3928445    
   33.31620      3.0015431E-02  0.3959240      0.3938237    
   32.29184      3.0967580E-02  0.3816058      0.3911849    
   31.29897      3.1949930E-02  0.3960249      0.4105465    
   30.33664      3.2963444E-02  0.4540086      0.4387627    
   29.40389      3.4009106E-02  0.4662544      0.4722806    
   28.49982      3.5087943E-02  0.4965787      0.4697334    
   27.62355      3.6201000E-02  0.4463672      0.4401343    
   26.77422      3.7349366E-02  0.3774568      0.3965108    
   25.95100      3.8534161E-02  0.3657085      0.3750648    
   25.15310      3.9756540E-02  0.3820292      0.3820000    
   24.37972      4.1017693E-02  0.3982623      0.3982981    
   23.63013      4.2318851E-02  0.4156608      0.4057865    
   22.90358      4.3661289E-02  0.3972402      0.4084764    
   22.19938      4.5046311E-02  0.4119824      0.4173129    
   21.51682      4.6475261E-02  0.4192365      0.4318355    
   20.85525      4.7949549E-02  0.4424450      0.4547803    
   20.21403      4.9470600E-02  0.4882731      0.4816246    
   19.59251      5.1039908E-02  0.5119647      0.5078462    
   18.99011      5.2658990E-02  0.5462037      0.5445904    
   18.40623      5.4329433E-02  0.5503441      0.5741649    
   17.84030      5.6052871E-02  0.6261663      0.6036888    
   17.29177      5.7830978E-02  0.6361455      0.6109796    
   16.76011      5.9665482E-02  0.6595845      0.6155396    
   16.24479      6.1558187E-02  0.5826573      0.6050429    
   15.74532      6.3510932E-02  0.5971871      0.5971809    
   15.26120      6.5525629E-02  0.5914972      0.6032213    
   14.79198      6.7604221E-02  0.5631862      0.6036488    
   14.33717      6.9748759E-02  0.5889732      0.6110393    
   13.89635      7.1961328E-02  0.6394635      0.6082810    
   13.46909      7.4244082E-02  0.6625774      0.5998188    
   13.05496      7.6599240E-02  0.6343909      0.5942348    
   12.65356      7.9029121E-02  0.5778779      0.5899754    
   12.26451      8.1536077E-02  0.5322624      0.5865537    
   11.88742      8.4122561E-02  0.5240984      0.5823448    
   11.52192      8.6791091E-02  0.5389453      0.5850867    
   11.16766      8.9544266E-02  0.6101875      0.5843863    
   10.82429      9.2384785E-02  0.6120893      0.5767618    
   10.49148      9.5315412E-02  0.6289065      0.5774361    
   10.16891      9.8338999E-02  0.6563265      0.5924456    
   9.856246      0.1014585      0.5787827      0.6076423    
   9.553200      0.1046770      0.5092579      0.6199275    
   9.259472      0.1079975      0.5383311      0.6305727    
   8.974774      0.1114234      0.5956305      0.6342782    
   8.698831      0.1149580      0.6559986      0.6362521    
   8.431372      0.1186047      0.6909127      0.6339118    
   8.172135      0.1223670      0.7330396      0.6330128    
   7.920870      0.1262487      0.7185413      0.6396714    
   7.677330      0.1302536      0.6659616      0.6476192    
   7.441278      0.1343855      0.6350626      0.6587512    
   7.212485      0.1386485      0.6571802      0.6639331    
   6.990726      0.1430467      0.6282429      0.6732039    
   6.775784      0.1475844      0.5679948      0.6967940    
   6.567452      0.1522661      0.5891611      0.7092624    
   6.365525      0.1570962      0.6337042      0.7235582    
   6.169807      0.1620796      0.6914566      0.7360399    
   5.980107      0.1672211      0.6965089      0.7650648    
   5.796239      0.1725257      0.7312987      0.7882844    
   5.618024      0.1779985      0.7857893      0.8068126    
   5.445289      0.1836450      0.8530028      0.8239567    
   5.277865      0.1894706      0.8649659      0.8240199    
   5.115589      0.1954809      0.9200667      0.8379409    
   4.958302      0.2016820      0.9329789      0.8502883    
   4.805851      0.2080797      0.8531849      0.8548247    
   4.658087      0.2146804      0.9431775      0.8492574    
   4.514867      0.2214905       1.022326      0.8403442    
   4.376050      0.2285166       1.029796      0.8203686    
   4.241501      0.2357656      0.9721604      0.8105829    
   4.111090      0.2432445      0.9081870      0.7861137    
   3.984688      0.2509607      0.8354626      0.7574705    
   3.862172      0.2589217      0.8251572      0.7385979    
   3.743424      0.2671351      0.8330975      0.7025472    
   3.628326      0.2756092      0.8373362      0.6708969    
   3.516768      0.2843520      0.8361097      0.6472625    
   3.408639      0.2933722      0.7244340      0.6079915    
   3.303835      0.3026786      0.7463211      0.5740446    
   3.202253      0.3122801      0.6830457      0.5526518    
   3.103795      0.3221862      0.6531658      0.5208854    
   3.008364      0.3324066      0.5953583      0.4879388    
   2.915867      0.3429512      0.4820566      0.4733454    
   2.826214      0.3538303      0.5062283      0.4443826    
   2.739317      0.3650545      0.5160557      0.4203655    
   2.655093      0.3766347      0.4930565      0.4155225    
   2.573457      0.3885823      0.4512280      0.4016126    
   2.494333      0.4009089      0.3762758      0.3955783    
   2.417640      0.4136265      0.3623131      0.3811644    
   2.343306      0.4267475      0.3399320      0.3698660    
   2.271257      0.4402848      0.2902613      0.3647464    
   2.201424      0.4542515      0.2426028      0.3437510    
   2.133738      0.4686611      0.2446337      0.3310919    
   2.068133      0.4835280      0.2346655      0.3069319    
   2.004544      0.4988664      0.2104960      0.2842198    
   1.942912      0.5146915      0.1916166      0.2706236    
   1.883174      0.5310184      0.1928330      0.2507652    
   1.825273      0.5478634      0.2159898      0.2325768    
   1.769152      0.5652427      0.2241365      0.2106010    
   1.714756      0.5831733      0.2179938      0.1953266    
   1.662033      0.6016726      0.2086728      0.1727768    
   1.610931      0.6207589      0.2070994      0.1540240    
   1.561401      0.6404505      0.1961620      0.1439873    
   1.513393      0.6607669      0.1939183      0.1439873    
   1.466861      0.6817277      0.2190769      0.1398463    
   1.421760      0.7033534      0.2168439      0.1398463    
   1.378046      0.7256652      0.1963688      0.1366777    
   1.335676      0.7486846      0.2061857      0.1366777    
   1.294608      0.7724344      0.2310816      0.1332240    
   1.254804      0.7969375      0.2487947      0.1332240    
   1.216223      0.8222179      0.2930588      0.1296123    
   1.178828      0.8483002      0.3491078      0.1296123    
   1.142583      0.8752099      0.3766854      0.1261510    
   1.107453      0.9029732      0.3628100      0.1261510    
   1.073402      0.9316174      0.3337149      0.1230252    
   1.040399      0.9611701      0.3080204      0.1230252    
   1.008410      0.9916603      0.2915578      0.1230252    
  0.9774047       1.023118      0.3013236      0.1205665    
  0.9473529       1.055573      0.3204371      0.1205665    
  0.9182250       1.089058      0.3274071      0.1205665    
  0.8899927       1.123605      0.3310666      0.1181964    
  0.8626285       1.159248      0.3329316      0.1181964    
  0.8361056       1.196021      0.3262598      0.1160010    
  0.8103982       1.233961      0.2847434      0.1160010    
  0.7854812       1.273105      0.2374932      0.1160010    
  0.7613303       1.313490      0.1843897      0.1142584    
  0.7379220       1.355157      0.1384578      0.1142584    
  0.7152334       1.398145      0.1269867      0.1142584    
  0.6932424       1.442497      0.1147573      0.1129620    
  0.6719276       1.488256      0.1062874      0.1129620    
  0.6512681       1.535466      0.1013027      0.1129620    
  0.6312438       1.584174      0.1076701      0.1116184    
  0.6118352       1.634427      0.1054836      0.1116184    
  0.5930234       1.686274      0.1005515      0.1116184    
  0.5747899       1.739766      9.1465078E-02  0.1116184    
  0.5571171       1.794955      8.6047418E-02  0.1103499    
  0.5399877       1.851894      8.8784650E-02  0.1103499    
  0.5233849       1.910640      9.1291979E-02  0.1103499    
  0.5072926       1.971249      8.2627967E-02  0.1103499    
  0.4916950       2.033781      6.8934001E-02  0.1093067    
  0.4765771       2.098296      6.1963886E-02  0.1093067    
  0.4619240       2.164858      5.5732939E-02  0.1093067    
  0.4477214       2.233532      5.2897491E-02  0.1093067    
  0.4339555       2.304384      4.9545914E-02  0.1084403    
  0.4206128       2.377483      4.2195491E-02  0.1084403    
  0.4076804       2.452902      3.8050510E-02  0.1084403    
  0.3951457       2.530712      3.6287017E-02  0.1084403    
  0.3829963       2.610991      3.1552386E-02  0.1075425    
  0.3712204       2.693817      2.4306858E-02  0.1075425    
  0.3598067       2.779270      2.0301968E-02  0.1075425    
  0.3487439       2.867434      2.0067174E-02  0.1075425    
  0.3380212       2.958395      2.1462819E-02  0.1075425    
  0.3276282       3.052241      2.2767497E-02  0.1075425    
  0.3175547       3.149064      2.5028277E-02  0.1063763    
  0.3077910       3.248958      2.7230736E-02  0.1063763    
  0.2983274       3.352021      2.7945045E-02  0.1063763    
  0.2891549       3.458354      2.5911057E-02  0.1063763    
  0.2802644       3.568060      2.2965280E-02  0.1063763    
  0.2716472       3.681245      2.2063134E-02  0.1063763    
  0.2632950       3.798022      2.1403695E-02  0.1050963    
  0.2551996       3.918502      2.2956094E-02  0.1050963    
  0.2473530       4.042805      2.5029873E-02  0.1050963    
  0.2397478       4.171050      2.4289222E-02  0.1050963    
  0.2323764       4.303364      2.0122962E-02  0.1050963    
  0.2252316       4.439875      1.6858863E-02  0.1050963    
  0.2183065       4.580716      1.4673673E-02  0.1050963    
  0.2115943       4.726026      1.3840787E-02  0.1038557    
  0.2050885       4.875944      1.3823686E-02  0.1038557    
  0.1987827       5.030619      1.4228775E-02  0.1038557    
  0.1926708       5.190199      1.4008535E-02  0.1038557    
  0.1867469       5.354843      1.2895636E-02  0.1038557    
  0.1810050       5.524709      1.1298294E-02  0.1038557    
  0.1754397       5.699963      9.3055246E-03  0.1038557    
  0.1700456       5.880777      7.5133299E-03  0.1038557    
  0.1648172       6.067327      6.5085734E-03  0.1038557    
  0.1597497       6.259794      6.4680758E-03  0.1026911    
  0.1548379       6.458367      6.6129058E-03  0.1026911    
  0.1500772       6.663239      6.5424191E-03  0.1026911    
  0.1454628       6.874609      6.2700673E-03  0.1026911    
  0.1409903       7.092686      5.9977835E-03  0.1026911    
  0.1366553       7.317679      5.9346794E-03  0.1026911    
  0.1324537       7.549810      5.7737092E-03  0.1026911    
  0.1283812       7.789305      5.2795494E-03  0.1026911    
  0.1244339       8.036396      5.0081126E-03  0.1026911    
  0.1206080       8.291327      4.7400058E-03  0.1026911    
  0.1168997       8.554343      4.3158117E-03  0.1026911    
  0.1133054       8.825704      3.8373624E-03  0.1026911    
  0.1098217       9.105672      3.3643146E-03  0.1015180    
  0.1064450       9.394522      2.9335024E-03  0.1015180    
  0.1031722       9.692533      2.5803731E-03  0.1015180    
  0.1000000       10.00000      2.3190537E-03  0.1015180    
