 Calculated PSA for the frequency range: 
 Station:   A64 
 Component: HHZ
  0.1000000      Hz and    50.00000      Hz
         200 frequencies distributed logarithmically
 Oscillator damping is   5.000000     % of critical
  Freq.(Hz)       Period(s)      PSA(cm/s^2)  Smooth PSA(cm/s^2)
   50.00000      1.9999998E-02  0.1505892      0.1505892    
   48.46267      2.0634437E-02  0.1626151      0.1751173    
   46.97261      2.1289000E-02  0.1876194      0.1880057    
   45.52837      2.1964328E-02  0.2137825      0.2112207    
   44.12852      2.2661081E-02  0.2322603      0.2287139    
   42.77172      2.3379933E-02  0.2400988      0.2377398    
   41.45663      2.4121592E-02  0.2408604      0.2395724    
   40.18199      2.4886772E-02  0.2377580      0.2362936    
   38.94653      2.5676232E-02  0.2302624      0.2292573    
   37.74905      2.6490729E-02  0.2197515      0.2195169    
   36.58840      2.7331069E-02  0.2085368      0.2087934    
   35.46343      2.8198060E-02  0.1980920      0.1973213    
   34.37305      2.9092560E-02  0.1853351      0.1842406    
   33.31620      3.0015431E-02  0.1692948      0.1758229    
   32.29184      3.0967580E-02  0.1728387      0.1759996    
   31.29897      3.1949930E-02  0.1858652      0.1846888    
   30.33664      3.2963444E-02  0.1953626      0.1954786    
   29.40389      3.4009106E-02  0.2052082      0.2041614    
   28.49982      3.5087943E-02  0.2119133      0.2099535    
   27.62355      3.6201000E-02  0.2127391      0.2112813    
   26.77422      3.7349366E-02  0.2091915      0.2087450    
   25.95100      3.8534161E-02  0.2043046      0.2059399    
   25.15310      3.9756540E-02  0.2043236      0.2023983    
   24.37972      4.1017693E-02  0.1985668      0.1918902    
   23.63013      4.2318851E-02  0.1864189      0.1851555    
   22.90358      4.3661289E-02  0.1782517      0.1845213    
   22.19938      4.5046311E-02  0.1773847      0.1827349    
   21.51682      4.6475261E-02  0.1819844      0.1849876    
   20.85525      4.7949549E-02  0.1896347      0.1902871    
   20.21403      4.9470600E-02  0.1976825      0.1986783    
   19.59251      5.1039908E-02  0.2047490      0.2065285    
   18.99011      5.2658990E-02  0.2193407      0.2157311    
   18.40623      5.4329433E-02  0.2212358      0.2239526    
   17.84030      5.6052871E-02  0.2356474      0.2309110    
   17.29177      5.7830978E-02  0.2387901      0.2329918    
   16.76011      5.9665482E-02  0.2395409      0.2367770    
   16.24479      6.1558187E-02  0.2297449      0.2369090    
   15.74532      6.3510932E-02  0.2318961      0.2358988    
   15.26120      6.5525629E-02  0.2450428      0.2363851    
   14.79198      6.7604221E-02  0.2364390      0.2362134    
   14.33717      6.9748759E-02  0.2327293      0.2376135    
   13.89635      7.1961328E-02  0.2393026      0.2393890    
   13.46909      7.4244082E-02  0.2383392      0.2402752    
   13.05496      7.6599240E-02  0.2395454      0.2444023    
   12.65356      7.9029121E-02  0.2443249      0.2548657    
   12.26451      8.1536077E-02  0.2512461      0.2589694    
   11.88742      8.4122561E-02  0.2653289      0.2659217    
   11.52192      8.6791091E-02  0.2839212      0.2755456    
   11.16766      8.9544266E-02  0.2769171      0.2819743    
   10.82429      9.2384785E-02  0.2721324      0.2880403    
   10.49148      9.5315412E-02  0.2939573      0.2965387    
   10.16891      9.8338999E-02  0.3165367      0.3084875    
   9.856246      0.1014585      0.3334044      0.3121150    
   9.553200      0.1046770      0.2989181      0.3157848    
   9.259472      0.1079975      0.3277327      0.3206192    
   8.974774      0.1114234      0.3432295      0.3252130    
   8.698831      0.1149580      0.3381261      0.3308392    
   8.431372      0.1186047      0.3201954      0.3357056    
   8.172135      0.1223670      0.3136157      0.3392785    
   7.920870      0.1262487      0.3204764      0.3492141    
   7.677330      0.1302536      0.3398952      0.3585882    
   7.441278      0.1343855      0.3527322      0.3811036    
   7.212485      0.1386485      0.3652079      0.3942282    
   6.990726      0.1430467      0.3749335      0.4114165    
   6.775784      0.1475844      0.3762786      0.4298167    
   6.567452      0.1522661      0.4181458      0.4419835    
   6.365525      0.1570962      0.4402218      0.4565914    
   6.169807      0.1620796      0.4739619      0.4713949    
   5.980107      0.1672211      0.5205560      0.4851855    
   5.796239      0.1725257      0.5648488      0.5023046    
   5.618024      0.1779985      0.5787627      0.5191650    
   5.445289      0.1836450      0.5395901      0.5349970    
   5.277865      0.1894706      0.4680240      0.5420068    
   5.115589      0.1954809      0.4961185      0.5596428    
   4.958302      0.2016820      0.5395948      0.5709276    
   4.805851      0.2080797      0.5619477      0.5780115    
   4.658087      0.2146804      0.5752881      0.5678815    
   4.514867      0.2214905      0.6019425      0.5590216    
   4.376050      0.2285166      0.6437569      0.5381802    
   4.241501      0.2357656      0.6518329      0.5245152    
   4.111090      0.2432445      0.5814606      0.4981659    
   3.984688      0.2509607      0.5976143      0.4804712    
   3.862172      0.2589217      0.6681823      0.4702282    
   3.743424      0.2671351      0.6502505      0.4546416    
   3.628326      0.2756092      0.6207544      0.4385557    
   3.516768      0.2843520      0.6438421      0.4274002    
   3.408639      0.2933722      0.5819006      0.4043237    
   3.303835      0.3026786      0.4396068      0.3817541    
   3.202253      0.3122801      0.3996367      0.3676748    
   3.103795      0.3221862      0.3729628      0.3495738    
   3.008364      0.3324066      0.3289632      0.3324370    
   2.915867      0.3429512      0.2712639      0.3231824    
   2.826214      0.3538303      0.2505538      0.3063067    
   2.739317      0.3650545      0.2346766      0.2929764    
   2.655093      0.3766347      0.2362193      0.2902467    
   2.573457      0.3885823      0.2639113      0.2801203    
   2.494333      0.4009089      0.2723566      0.2741082    
   2.417640      0.4136265      0.2732737      0.2588935    
   2.343306      0.4267475      0.2677079      0.2459219    
   2.271257      0.4402848      0.2497041      0.2412217    
   2.201424      0.4542515      0.2378231      0.2286925    
   2.133738      0.4686611      0.2049700      0.2228555    
   2.068133      0.4835280      0.1726098      0.2068842    
   2.004544      0.4988664      0.1428579      0.1908392    
   1.942912      0.5146915      0.1318418      0.1831432    
   1.883174      0.5310184      0.1285109      0.1697634    
   1.825273      0.5478634      0.1381037      0.1590427    
   1.769152      0.5652427      0.1416420      0.1451957    
   1.714756      0.5831733      0.1572477      0.1347242    
   1.662033      0.6016726      0.1587969      0.1204141    
   1.610931      0.6207589      0.1687296      0.1075657    
   1.561401      0.6404505      0.1785799      0.1013442    
   1.513393      0.6607669      0.1731481      0.1013442    
   1.466861      0.6817277      0.1593878      9.9255964E-02
   1.421760      0.7033534      0.1630690      9.9255964E-02
   1.378046      0.7256652      0.1549155      9.7663298E-02
   1.335676      0.7486846      0.1707484      9.7663298E-02
   1.294608      0.7724344      0.2051800      9.6234411E-02
   1.254804      0.7969375      0.2330761      9.6234411E-02
   1.216223      0.8222179      0.2419939      9.4928354E-02
   1.178828      0.8483002      0.2320418      9.4928354E-02
   1.142583      0.8752099      0.2284216      9.3582727E-02
   1.107453      0.9029732      0.2179759      9.3582727E-02
   1.073402      0.9316174      0.2045140      9.1944948E-02
   1.040399      0.9611701      0.1954191      9.1944948E-02
   1.008410      0.9916603      0.1698851      9.1944948E-02
  0.9774047       1.023118      0.1543440      9.0193376E-02
  0.9473529       1.055573      0.1444938      9.0193376E-02
  0.9182250       1.089058      0.1319030      9.0193376E-02
  0.8899927       1.123605      0.1379070      8.8398479E-02
  0.8626285       1.159248      0.1665301      8.8398479E-02
  0.8361056       1.196021      0.1751451      8.6623132E-02
  0.8103982       1.233961      0.1644496      8.6623132E-02
  0.7854812       1.273105      0.1584644      8.6623132E-02
  0.7613303       1.313490      0.1615245      8.4992319E-02
  0.7379220       1.355157      0.1643572      8.4992319E-02
  0.7152334       1.398145      0.1427618      8.4992319E-02
  0.6932424       1.442497      0.1297412      8.3448574E-02
  0.6719276       1.488256      0.1191650      8.3448574E-02
  0.6512681       1.535466      0.1102996      8.3448574E-02
  0.6312438       1.584174      0.1008909      8.2208559E-02
  0.6118352       1.634427      9.1751657E-02  8.2208559E-02
  0.5930234       1.686274      8.2205586E-02  8.2208559E-02
  0.5747899       1.739766      7.2167315E-02  8.2208559E-02
  0.5571171       1.794955      6.5729313E-02  8.1276588E-02
  0.5399877       1.851894      6.4424880E-02  8.1276588E-02
  0.5233849       1.910640      6.8505004E-02  8.1276588E-02
  0.5072926       1.971249      7.1044743E-02  8.1276588E-02
  0.4916950       2.033781      6.8775132E-02  8.0635116E-02
  0.4765771       2.098296      6.6150077E-02  8.0635116E-02
  0.4619240       2.164858      6.2434375E-02  8.0635116E-02
  0.4477214       2.233532      5.8058333E-02  8.0635116E-02
  0.4339555       2.304384      5.5579729E-02  8.0096096E-02
  0.4206128       2.377483      5.3563759E-02  8.0096096E-02
  0.4076804       2.452902      5.1505938E-02  8.0096096E-02
  0.3951457       2.530712      4.7473248E-02  8.0096096E-02
  0.3829963       2.610991      4.3198835E-02  7.9581045E-02
  0.3712204       2.693817      3.8479213E-02  7.9581045E-02
  0.3598067       2.779270      3.4061208E-02  7.9581045E-02
  0.3487439       2.867434      3.3641689E-02  7.9581045E-02
  0.3380212       2.958395      3.3337045E-02  7.9581045E-02
  0.3276282       3.052241      3.1811170E-02  7.9581045E-02
  0.3175547       3.149064      2.9264709E-02  7.8951776E-02
  0.3077910       3.248958      2.6132992E-02  7.8951776E-02
  0.2983274       3.352021      2.2568904E-02  7.8951776E-02
  0.2891549       3.458354      1.9152336E-02  7.8951776E-02
  0.2802644       3.568060      1.6246017E-02  7.8951776E-02
  0.2716472       3.681245      1.3695801E-02  7.8951776E-02
  0.2632950       3.798022      1.3238493E-02  7.8270361E-02
  0.2551996       3.918502      1.2960683E-02  7.8270361E-02
  0.2473530       4.042805      1.5605513E-02  7.8270361E-02
  0.2397478       4.171050      1.6195051E-02  7.8270361E-02
  0.2323764       4.303364      1.6264740E-02  7.8270361E-02
  0.2252316       4.439875      1.5772976E-02  7.8270361E-02
  0.2183065       4.580716      1.5313034E-02  7.8270361E-02
  0.2115943       4.726026      1.5979918E-02  7.7402480E-02
  0.2050885       4.875944      1.5852474E-02  7.7402480E-02
  0.1987827       5.030619      1.4824516E-02  7.7402480E-02
  0.1926708       5.190199      1.3307771E-02  7.7402480E-02
  0.1867469       5.354843      1.2460517E-02  7.7402480E-02
  0.1810050       5.524709      1.2347764E-02  7.7402480E-02
  0.1754397       5.699963      1.1850466E-02  7.7402480E-02
  0.1700456       5.880777      1.1013875E-02  7.7402480E-02
  0.1648172       6.067327      1.0335525E-02  7.7402480E-02
  0.1597497       6.259794      9.1560297E-03  7.6498099E-02
  0.1548379       6.458367      8.0519356E-03  7.6498099E-02
  0.1500772       6.663239      7.1953144E-03  7.6498099E-02
  0.1454628       6.874609      6.6279983E-03  7.6498099E-02
  0.1409903       7.092686      6.2455568E-03  7.6498099E-02
  0.1366553       7.317679      5.9172795E-03  7.6498099E-02
  0.1324537       7.549810      5.5736848E-03  7.6498099E-02
  0.1283812       7.789305      5.1757107E-03  7.6498099E-02
  0.1244339       8.036396      4.6884362E-03  7.6498099E-02
  0.1206080       8.291327      4.1022049E-03  7.6498099E-02
  0.1168997       8.554343      3.8455944E-03  7.6498099E-02
  0.1133054       8.825704      3.6084631E-03  7.6498099E-02
  0.1098217       9.105672      3.2913203E-03  7.5461783E-02
  0.1064450       9.394522      2.9504427E-03  7.5461783E-02
  0.1031722       9.692533      2.6474202E-03  7.5461783E-02
  0.1000000       10.00000      2.4056314E-03  7.5461783E-02
