 Calculated PSA for the frequency range: 
 Station:   VLDQ
 Component: BHE
  0.1000000      Hz and    50.00000      Hz
         200 frequencies distributed logarithmically
 Oscillator damping is   5.000000     % of critical
  Freq.(Hz)       Period(s)      PSA(cm/s^2)  Smooth PSA(cm/s^2)
   50.00000      1.9999998E-02  0.1286684      0.1286684    
   48.46267      2.0634437E-02  0.1301793      0.1310840    
   46.97261      2.1289000E-02  0.1319886      0.1318411    
   45.52837      2.1964328E-02  0.1333554      0.1329787    
   44.12852      2.2661081E-02  0.1335921      0.1330025    
   42.77172      2.3379933E-02  0.1320600      0.1321149    
   41.45663      2.4121592E-02  0.1306925      0.1311651    
   40.18199      2.4886772E-02  0.1307427      0.1308016    
   38.94653      2.5676232E-02  0.1309694      0.1305105    
   37.74905      2.6490729E-02  0.1298194      0.1293849    
   36.58840      2.7331069E-02  0.1273659      0.1278562    
   35.46343      2.8198060E-02  0.1263833      0.1270520    
   34.37305      2.9092560E-02  0.1274067      0.1276825    
   33.31620      3.0015431E-02  0.1292575      0.1293705    
   32.29184      3.0967580E-02  0.1314473      0.1317006    
   31.29897      3.1949930E-02  0.1343970      0.1343813    
   30.33664      3.2963444E-02  0.1372997      0.1363748    
   29.40389      3.4009106E-02  0.1374276      0.1367440    
   28.49982      3.5087943E-02  0.1355048      0.1364581    
   27.62355      3.6201000E-02  0.1364418      0.1370975    
   26.77422      3.7349366E-02  0.1393458      0.1386288    
   25.95100      3.8534161E-02  0.1400989      0.1395627    
   25.15310      3.9756540E-02  0.1392435      0.1387404    
   24.37972      4.1017693E-02  0.1368789      0.1356148    
   23.63013      4.2318851E-02  0.1348502      0.1324310    
   22.90358      4.3661289E-02  0.1314867      0.1318121    
   22.19938      4.5046311E-02  0.1265083      0.1302385    
   21.51682      4.6475261E-02  0.1293363      0.1292181    
   20.85525      4.7949549E-02  0.1290108      0.1292579    
   20.21403      4.9470600E-02  0.1297487      0.1307386    
   19.59251      5.1039908E-02  0.1316858      0.1321332    
   18.99011      5.2658990E-02  0.1339114      0.1333443    
   18.40623      5.4329433E-02  0.1363091      0.1353912    
   17.84030      5.6052871E-02  0.1350663      0.1381013    
   17.29177      5.7830978E-02  0.1399833      0.1405281    
   16.76011      5.9665482E-02  0.1452365      0.1446275    
   16.24479      6.1558187E-02  0.1460450      0.1476000    
   15.74532      6.3510932E-02  0.1490780      0.1493218    
   15.26120      6.5525629E-02  0.1523556      0.1488277    
   14.79198      6.7604221E-02  0.1529017      0.1486923    
   14.33717      6.9748759E-02  0.1503139      0.1474860    
   13.89635      7.1961328E-02  0.1458631      0.1463522    
   13.46909      7.4244082E-02  0.1442886      0.1442854    
   13.05496      7.6599240E-02  0.1376007      0.1429853    
   12.65356      7.9029121E-02  0.1411416      0.1442195    
   12.26451      8.1536077E-02  0.1378883      0.1442623    
   11.88742      8.4122561E-02  0.1438011      0.1470338    
   11.52192      8.6791091E-02  0.1516890      0.1517124    
   11.16766      8.9544266E-02  0.1514839      0.1544322    
   10.82429      9.2384785E-02  0.1462050      0.1586457    
   10.49148      9.5315412E-02  0.1664604      0.1668690    
   10.16891      9.8338999E-02  0.1750295      0.1795183    
   9.856246      0.1014585      0.1761910      0.1885055    
   9.553200      0.1046770      0.1790627      0.1983942    
   9.259472      0.1079975      0.2118985      0.2075537    
   8.974774      0.1114234      0.2148043      0.2145157    
   8.698831      0.1149580      0.2223585      0.2204828    
   8.431372      0.1186047      0.2415615      0.2278002    
   8.172135      0.1223670      0.2503710      0.2333867    
   7.920870      0.1262487      0.2377995      0.2390115    
   7.677330      0.1302536      0.2360808      0.2437581    
   7.441278      0.1343855      0.2386130      0.2596508    
   7.212485      0.1386485      0.2620234      0.2665207    
   6.990726      0.1430467      0.2628385      0.2770661    
   6.775784      0.1475844      0.2432291      0.2883738    
   6.567452      0.1522661      0.2465595      0.2901961    
   6.365525      0.1570962      0.2688580      0.2912448    
   6.169807      0.1620796      0.3056895      0.2923877    
   5.980107      0.1672211      0.3594785      0.2888203    
   5.796239      0.1725257      0.3558288      0.2914390    
   5.618024      0.1779985      0.3699943      0.2954084    
   5.445289      0.1836450      0.3639546      0.3034475    
   5.277865      0.1894706      0.3242887      0.3055900    
   5.115589      0.1954809      0.2777045      0.3142573    
   4.958302      0.2016820      0.2535307      0.3211701    
   4.805851      0.2080797      0.2532245      0.3260183    
   4.658087      0.2146804      0.2712201      0.3266011    
   4.514867      0.2214905      0.2529092      0.3250130    
   4.376050      0.2285166      0.2831311      0.3250693    
   4.241501      0.2357656      0.3295031      0.3270169    
   4.111090      0.2432445      0.3552700      0.3313940    
   3.984688      0.2509607      0.3476810      0.3358381    
   3.862172      0.2589217      0.3441560      0.3361379    
   3.743424      0.2671351      0.3451522      0.3369797    
   3.628326      0.2756092      0.3770127      0.3357990    
   3.516768      0.2843520      0.3848145      0.3360243    
   3.408639      0.2933722      0.3658223      0.3363715    
   3.303835      0.3026786      0.3284412      0.3401483    
   3.202253      0.3122801      0.3155046      0.3405010    
   3.103795      0.3221862      0.2916633      0.3421347    
   3.008364      0.3324066      0.3198787      0.3395825    
   2.915867      0.3429512      0.3659083      0.3352963    
   2.826214      0.3538303      0.4006240      0.3326034    
   2.739317      0.3650545      0.4030156      0.3271240    
   2.655093      0.3766347      0.3990469      0.3232143    
   2.573457      0.3885823      0.3927698      0.3181412    
   2.494333      0.4009089      0.3855651      0.3082506    
   2.417640      0.4136265      0.3717483      0.2966002    
   2.343306      0.4267475      0.3581269      0.2904224    
   2.271257      0.4402848      0.3250277      0.2841130    
   2.201424      0.4542515      0.3265065      0.2745036    
   2.133738      0.4686611      0.3132150      0.2647819    
   2.068133      0.4835280      0.2842376      0.2515812    
   2.004544      0.4988664      0.2894434      0.2394437    
   1.942912      0.5146915      0.3105277      0.2291273    
   1.883174      0.5310184      0.3471077      0.2168421    
   1.825273      0.5478634      0.3595667      0.2027962    
   1.769152      0.5652427      0.3464988      0.1887790    
   1.714756      0.5831733      0.3454349      0.1755864    
   1.662033      0.6016726      0.3497622      0.1585142    
   1.610931      0.6207589      0.3175060      0.1413147    
   1.561401      0.6404505      0.2598152      0.1349044    
   1.513393      0.6607669      0.2459005      0.1349044    
   1.466861      0.6817277      0.2473901      0.1332074    
   1.421760      0.7033534      0.2731881      0.1332074    
   1.378046      0.7256652      0.2777071      0.1310527    
   1.335676      0.7486846      0.2383891      0.1310527    
   1.294608      0.7724344      0.2177828      0.1285334    
   1.254804      0.7969375      0.2306272      0.1285334    
   1.216223      0.8222179      0.2436889      0.1259439    
   1.178828      0.8483002      0.2502613      0.1259439    
   1.142583      0.8752099      0.2429973      0.1233430    
   1.107453      0.9029732      0.2224163      0.1233430    
   1.073402      0.9316174      0.2011018      0.1207523    
   1.040399      0.9611701      0.1746253      0.1207523    
   1.008410      0.9916603      0.1336209      0.1207523    
  0.9774047       1.023118      0.1423559      0.1181813    
  0.9473529       1.055573      0.1377069      0.1181813    
  0.9182250       1.089058      0.1365515      0.1181813    
  0.8899927       1.123605      0.1597430      0.1156954    
  0.8626285       1.159248      0.1844775      0.1156954    
  0.8361056       1.196021      0.1868724      0.1132951    
  0.8103982       1.233961      0.1833910      0.1132951    
  0.7854812       1.273105      0.1792263      0.1132951    
  0.7613303       1.313490      0.1585207      0.1111777    
  0.7379220       1.355157      0.1344926      0.1111777    
  0.7152334       1.398145      0.1110666      0.1111777    
  0.6932424       1.442497      9.3044534E-02  0.1090027    
  0.6719276       1.488256      9.1994174E-02  0.1090027    
  0.6512681       1.535466      9.4052188E-02  0.1090027    
  0.6312438       1.584174      9.5558137E-02  0.1069189    
  0.6118352       1.634427      9.9295966E-02  0.1069189    
  0.5930234       1.686274      9.9499702E-02  0.1069189    
  0.5747899       1.739766      9.8168500E-02  0.1069189    
  0.5571171       1.794955      0.1029413      0.1050909    
  0.5399877       1.851894      0.1013101      0.1050909    
  0.5233849       1.910640      9.3280450E-02  0.1050909    
  0.5072926       1.971249      8.9497812E-02  0.1050909    
  0.4916950       2.033781      8.3959863E-02  0.1031705    
  0.4765771       2.098296      7.2891712E-02  0.1031705    
  0.4619240       2.164858      6.2756658E-02  0.1031705    
  0.4477214       2.233532      5.7285819E-02  0.1031705    
  0.4339555       2.304384      5.4714698E-02  0.1009878    
  0.4206128       2.377483      5.0302450E-02  0.1009878    
  0.4076804       2.452902      5.1198877E-02  0.1009878    
  0.3951457       2.530712      4.9311630E-02  0.1009878    
  0.3829963       2.610991      4.5580223E-02  9.8369524E-02
  0.3712204       2.693817      4.2476553E-02  9.8369524E-02
  0.3598067       2.779270      4.0704839E-02  9.8369524E-02
  0.3487439       2.867434      3.9901182E-02  9.8369524E-02
  0.3380212       2.958395      3.8724057E-02  9.8369524E-02
  0.3276282       3.052241      4.0222298E-02  9.8369524E-02
  0.3175547       3.149064      4.1256666E-02  9.5560953E-02
  0.3077910       3.248958      4.0175017E-02  9.5560953E-02
  0.2983274       3.352021      3.8069397E-02  9.5560953E-02
  0.2891549       3.458354      3.6055036E-02  9.5560953E-02
  0.2802644       3.568060      3.4176301E-02  9.5560953E-02
  0.2716472       3.681245      3.1308401E-02  9.5560953E-02
  0.2632950       3.798022      2.8160539E-02  9.2833377E-02
  0.2551996       3.918502      2.8075360E-02  9.2833377E-02
  0.2473530       4.042805      2.7286088E-02  9.2833377E-02
  0.2397478       4.171050      2.5865041E-02  9.2833377E-02
  0.2323764       4.303364      2.3845199E-02  9.2833377E-02
  0.2252316       4.439875      2.1453382E-02  9.2833377E-02
  0.2183065       4.580716      1.9017324E-02  9.2833377E-02
  0.2115943       4.726026      1.6704867E-02  9.0057530E-02
  0.2050885       4.875944      1.4514809E-02  9.0057530E-02
  0.1987827       5.030619      1.2467759E-02  9.0057530E-02
  0.1926708       5.190199      1.0650141E-02  9.0057530E-02
  0.1867469       5.354843      9.9483579E-03  9.0057530E-02
  0.1810050       5.524709      9.3166335E-03  9.0057530E-02
  0.1754397       5.699963      8.7411581E-03  9.0057530E-02
  0.1700456       5.880777      8.2333703E-03  9.0057530E-02
  0.1648172       6.067327      7.7591832E-03  9.0057530E-02
  0.1597497       6.259794      7.3086200E-03  8.7171920E-02
  0.1548379       6.458367      6.9277128E-03  8.7171920E-02
  0.1500772       6.663239      6.5454240E-03  8.7171920E-02
  0.1454628       6.874609      6.1318451E-03  8.7171920E-02
  0.1409903       7.092686      5.6877560E-03  8.7171920E-02
  0.1366553       7.317679      5.2478663E-03  8.7171920E-02
  0.1324537       7.549810      4.8361905E-03  8.7171920E-02
  0.1283812       7.789305      4.4639027E-03  8.7171920E-02
  0.1244339       8.036396      4.1301572E-03  8.7171920E-02
  0.1206080       8.291327      3.8138602E-03  8.7171920E-02
  0.1168997       8.554343      3.5088756E-03  8.7171920E-02
  0.1133054       8.825704      3.2218506E-03  8.7171920E-02
  0.1098217       9.105672      2.9554954E-03  8.4583901E-02
  0.1064450       9.394522      2.7116730E-03  8.4583901E-02
  0.1031722       9.692533      2.4958216E-03  8.4583901E-02
  0.1000000       10.00000      2.3098211E-03  8.4583901E-02
