 Calculated PSA for the frequency range: 
 Station:   GGN 
 Component: BHZ
  0.1000000      Hz and    50.00000      Hz
         200 frequencies distributed logarithmically
 Oscillator damping is   5.000000     % of critical
  Freq.(Hz)       Period(s)      PSA(cm/s^2)  Smooth PSA(cm/s^2)
   50.00000      1.9999998E-02  0.1641790      0.1641790    
   48.46267      2.0634437E-02  0.1643800      0.1651994    
   46.97261      2.1289000E-02  0.1660187      0.1653208    
   45.52837      2.1964328E-02  0.1655637      0.1648939    
   44.12852      2.2661081E-02  0.1630991      0.1630728    
   42.77172      2.3379933E-02  0.1605555      0.1610421    
   41.45663      2.4121592E-02  0.1594718      0.1600004    
   40.18199      2.4886772E-02  0.1599739      0.1600328    
   38.94653      2.5676232E-02  0.1606526      0.1602196    
   37.74905      2.6490729E-02  0.1600323      0.1594326    
   36.58840      2.7331069E-02  0.1576128      0.1578362    
   35.46343      2.8198060E-02  0.1558635      0.1553959    
   34.37305      2.9092560E-02  0.1527114      0.1527595    
   33.31620      3.0015431E-02  0.1497036      0.1518095    
   32.29184      3.0967580E-02  0.1530135      0.1529545    
   31.29897      3.1949930E-02  0.1561463      0.1555390    
   30.33664      3.2963444E-02  0.1574572      0.1579810    
   29.40389      3.4009106E-02  0.1603396      0.1577503    
   28.49982      3.5087943E-02  0.1554541      0.1552105    
   27.62355      3.6201000E-02  0.1498378      0.1536156    
   26.77422      3.7349366E-02  0.1555550      0.1550154    
   25.95100      3.8534161E-02  0.1596534      0.1587758    
   25.15310      3.9756540E-02  0.1611190      0.1598363    
   24.37972      4.1017693E-02  0.1587365      0.1586636    
   23.63013      4.2318851E-02  0.1570878      0.1583236    
   22.90358      4.3661289E-02  0.1577110      0.1588653    
   22.19938      4.5046311E-02  0.1597591      0.1593653    
   21.51682      4.6475261E-02  0.1610322      0.1601882    
   20.85525      4.7949549E-02  0.1612365      0.1608766    
   20.21403      4.9470600E-02  0.1612021      0.1611506    
   19.59251      5.1039908E-02  0.1611529      0.1612388    
   18.99011      5.2658990E-02  0.1611294      0.1616524    
   18.40623      5.4329433E-02  0.1614729      0.1627247    
   17.84030      5.6052871E-02  0.1633048      0.1641912    
   17.29177      5.7830978E-02  0.1665634      0.1656548    
   16.76011      5.9665482E-02  0.1684857      0.1654457    
   16.24479      6.1558187E-02  0.1684473      0.1666254    
   15.74532      6.3510932E-02  0.1655414      0.1686034    
   15.26120      6.5525629E-02  0.1603316      0.1699751    
   14.79198      6.7604221E-02  0.1703830      0.1709981    
   14.33717      6.9748759E-02  0.1784314      0.1728187    
   13.89635      7.1961328E-02  0.1782054      0.1758447    
   13.46909      7.4244082E-02  0.1756463      0.1826295    
   13.05496      7.6599240E-02  0.1811919      0.1905231    
   12.65356      7.9029121E-02  0.1867235      0.2021854    
   12.26451      8.1536077E-02  0.2078246      0.2052277    
   11.88742      8.4122561E-02  0.2256389      0.2086088    
   11.52192      8.6791091E-02  0.2336657      0.2111395    
   11.16766      8.9544266E-02  0.2285872      0.2098092    
   10.82429      9.2384785E-02  0.2025433      0.2117260    
   10.49148      9.5315412E-02  0.2026952      0.2125437    
   10.16891      9.8338999E-02  0.2014375      0.2123278    
   9.856246      0.1014585      0.1991667      0.2153877    
   9.553200      0.1046770      0.2039753      0.2215338    
   9.259472      0.1079975      0.2151832      0.2316160    
   8.974774      0.1114234      0.2115598      0.2443084    
   8.698831      0.1149580      0.2244640      0.2604104    
   8.431372      0.1186047      0.2642643      0.2800378    
   8.172135      0.1223670      0.2900487      0.3028997    
   7.920870      0.1262487      0.3033651      0.3220618    
   7.677330      0.1302536      0.3296198      0.3390635    
   7.441278      0.1343855      0.3243787      0.3596765    
   7.212485      0.1386485      0.3574618      0.3602176    
   6.990726      0.1430467      0.4369658      0.3704853    
   6.775784      0.1475844      0.4735101      0.3891371    
   6.567452      0.1522661      0.4339206      0.3985111    
   6.365525      0.1570962      0.4192030      0.4070185    
   6.169807      0.1620796      0.4262553      0.4129516    
   5.980107      0.1672211      0.3923369      0.4081738    
   5.796239      0.1725257      0.3672521      0.4108630    
   5.618024      0.1779985      0.3682120      0.4162113    
   5.445289      0.1836450      0.4461710      0.4211850    
   5.277865      0.1894706      0.4683555      0.4248522    
   5.115589      0.1954809      0.4306580      0.4345079    
   4.958302      0.2016820      0.4309756      0.4395269    
   4.805851      0.2080797      0.4186175      0.4472474    
   4.658087      0.2146804      0.3710933      0.4624187    
   4.514867      0.2214905      0.3735873      0.4649473    
   4.376050      0.2285166      0.3700942      0.4692074    
   4.241501      0.2357656      0.4483840      0.4717290    
   4.111090      0.2432445      0.4826651      0.4757910    
   3.984688      0.2509607      0.4600394      0.4747878    
   3.862172      0.2589217      0.4908611      0.4727609    
   3.743424      0.2671351      0.5387206      0.4612357    
   3.628326      0.2756092      0.5527558      0.4463872    
   3.516768      0.2843520      0.5343019      0.4395137    
   3.408639      0.2933722      0.5736136      0.4273507    
   3.303835      0.3026786      0.6158022      0.4151635    
   3.202253      0.3122801      0.5762968      0.4065599    
   3.103795      0.3221862      0.5180468      0.3989481    
   3.008364      0.3324066      0.4842718      0.3900089    
   2.915867      0.3429512      0.4709959      0.3830135    
   2.826214      0.3538303      0.4252481      0.3771832    
   2.739317      0.3650545      0.4716128      0.3690805    
   2.655093      0.3766347      0.4658154      0.3640424    
   2.573457      0.3885823      0.4929368      0.3573545    
   2.494333      0.4009089      0.4325623      0.3503580    
   2.417640      0.4136265      0.3934698      0.3377766    
   2.343306      0.4267475      0.3393585      0.3275324    
   2.271257      0.4402848      0.2905779      0.3178549    
   2.201424      0.4542515      0.2670632      0.3030961    
   2.133738      0.4686611      0.2248026      0.2924635    
   2.068133      0.4835280      0.2313273      0.2738771    
   2.004544      0.4988664      0.2542218      0.2576852    
   1.942912      0.5146915      0.2513745      0.2473676    
   1.883174      0.5310184      0.2370308      0.2312685    
   1.825273      0.5478634      0.2311370      0.2151215    
   1.769152      0.5652427      0.2575996      0.1961408    
   1.714756      0.5831733      0.2888055      0.1824663    
   1.662033      0.6016726      0.2767775      0.1628014    
   1.610931      0.6207589      0.2420770      0.1453195    
   1.561401      0.6404505      0.2302442      0.1367544    
   1.513393      0.6607669      0.2294193      0.1367544    
   1.466861      0.6817277      0.2525941      0.1335661    
   1.421760      0.7033534      0.2685955      0.1335661    
   1.378046      0.7256652      0.2638832      0.1304418    
   1.335676      0.7486846      0.2676713      0.1304418    
   1.294608      0.7724344      0.2542514      0.1276866    
   1.254804      0.7969375      0.2553125      0.1276866    
   1.216223      0.8222179      0.2554529      0.1244420    
   1.178828      0.8483002      0.2761435      0.1244420    
   1.142583      0.8752099      0.2853864      0.1211908    
   1.107453      0.9029732      0.2804292      0.1211908    
   1.073402      0.9316174      0.2465784      0.1176163    
   1.040399      0.9611701      0.2600786      0.1176163    
   1.008410      0.9916603      0.2505693      0.1176163    
  0.9774047       1.023118      0.2260600      0.1145586    
  0.9473529       1.055573      0.1873810      0.1145586    
  0.9182250       1.089058      0.1559866      0.1145586    
  0.8899927       1.123605      0.1668139      0.1118242    
  0.8626285       1.159248      0.1701000      0.1118242    
  0.8361056       1.196021      0.1701555      0.1095714    
  0.8103982       1.233961      0.1699491      0.1095714    
  0.7854812       1.273105      0.1489418      0.1095714    
  0.7613303       1.313490      0.1236127      0.1077613    
  0.7379220       1.355157      0.1339196      0.1077613    
  0.7152334       1.398145      0.1346840      0.1077613    
  0.6932424       1.442497      0.1260604      0.1061522    
  0.6719276       1.488256      9.9258043E-02  0.1061522    
  0.6512681       1.535466      8.8544242E-02  0.1061522    
  0.6312438       1.584174      7.9606116E-02  0.1049415    
  0.6118352       1.634427      8.2623713E-02  0.1049415    
  0.5930234       1.686274      8.1058212E-02  0.1049415    
  0.5747899       1.739766      9.0255618E-02  0.1049415    
  0.5571171       1.794955      9.0539947E-02  0.1036385    
  0.5399877       1.851894      8.7359205E-02  0.1036385    
  0.5233849       1.910640      8.5041232E-02  0.1036385    
  0.5072926       1.971249      8.9099206E-02  0.1036385    
  0.4916950       2.033781      9.2126034E-02  0.1020700    
  0.4765771       2.098296      9.0217248E-02  0.1020700    
  0.4619240       2.164858      8.6332597E-02  0.1020700    
  0.4477214       2.233532      8.1099369E-02  0.1020700    
  0.4339555       2.304384      6.8663411E-02  0.1004983    
  0.4206128       2.377483      5.6869421E-02  0.1004983    
  0.4076804       2.452902      4.4600099E-02  0.1004983    
  0.3951457       2.530712      3.4746371E-02  0.1004983    
  0.3829963       2.610991      2.7372604E-02  9.9045865E-02
  0.3712204       2.693817      2.8908940E-02  9.9045865E-02
  0.3598067       2.779270      2.9966842E-02  9.9045865E-02
  0.3487439       2.867434      3.1138998E-02  9.9045865E-02
  0.3380212       2.958395      3.0711360E-02  9.9045865E-02
  0.3276282       3.052241      2.8484099E-02  9.9045865E-02
  0.3175547       3.149064      2.8041709E-02  9.7625524E-02
  0.3077910       3.248958      2.8722038E-02  9.7625524E-02
  0.2983274       3.352021      2.9092008E-02  9.7625524E-02
  0.2891549       3.458354      2.8544651E-02  9.7625524E-02
  0.2802644       3.568060      2.8437641E-02  9.7625524E-02
  0.2716472       3.681245      3.0114872E-02  9.7625524E-02
  0.2632950       3.798022      3.1310741E-02  9.5886678E-02
  0.2551996       3.918502      3.1250380E-02  9.5886678E-02
  0.2473530       4.042805      2.9572442E-02  9.5886678E-02
  0.2397478       4.171050      2.6509752E-02  9.5886678E-02
  0.2323764       4.303364      2.3059262E-02  9.5886678E-02
  0.2252316       4.439875      2.0890757E-02  9.5886678E-02
  0.2183065       4.580716      2.0717990E-02  9.5886678E-02
  0.2115943       4.726026      2.1492586E-02  9.3766682E-02
  0.2050885       4.875944      2.1875152E-02  9.3766682E-02
  0.1987827       5.030619      2.2714375E-02  9.3766682E-02
  0.1926708       5.190199      2.2574622E-02  9.3766682E-02
  0.1867469       5.354843      2.0587917E-02  9.3766682E-02
  0.1810050       5.524709      1.7997650E-02  9.3766682E-02
  0.1754397       5.699963      1.5604312E-02  9.3766682E-02
  0.1700456       5.880777      1.3468205E-02  9.3766682E-02
  0.1648172       6.067327      1.1546034E-02  9.3766682E-02
  0.1597497       6.259794      9.9840239E-03  9.1733232E-02
  0.1548379       6.458367      8.8541331E-03  9.1733232E-02
  0.1500772       6.663239      8.1067150E-03  9.1733232E-02
  0.1454628       6.874609      7.6810834E-03  9.1733232E-02
  0.1409903       7.092686      7.6203668E-03  9.1733232E-02
  0.1366553       7.317679      7.4405260E-03  9.1733232E-02
  0.1324537       7.549810      7.0976238E-03  9.1733232E-02
  0.1283812       7.789305      6.6001844E-03  9.1733232E-02
  0.1244339       8.036396      6.0004969E-03  9.1733232E-02
  0.1206080       8.291327      5.2748872E-03  9.1733232E-02
  0.1168997       8.554343      4.5245253E-03  9.1733232E-02
  0.1133054       8.825704      3.8667244E-03  9.1733232E-02
  0.1098217       9.105672      3.3805196E-03  9.0043977E-02
  0.1064450       9.394522      3.0538568E-03  9.0043977E-02
  0.1031722       9.692533      2.8110880E-03  9.0043977E-02
  0.1000000       10.00000      2.5947888E-03  9.0043977E-02
