 Calculated PSA for the frequency range: 
 Station:   A16 
 Component: HHE
  0.1000000      Hz and    50.00000      Hz
         200 frequencies distributed logarithmically
 Oscillator damping is   5.000000     % of critical
  Freq.(Hz)       Period(s)      PSA(cm/s^2)  Smooth PSA(cm/s^2)
   50.00000      1.9999998E-02  0.2069447      0.2069447    
   48.46267      2.0634437E-02  0.2077338      0.2082042    
   46.97261      2.1289000E-02  0.2086746      0.2086295    
   45.52837      2.1964328E-02  0.2094803      0.2094493    
   44.12852      2.2661081E-02  0.2101931      0.2102187    
   42.77172      2.3379933E-02  0.2109829      0.2104324    
   41.45663      2.4121592E-02  0.2101212      0.2101503    
   40.18199      2.4886772E-02  0.2093468      0.2100422    
   38.94653      2.5676232E-02  0.2106587      0.2100530    
   37.74905      2.6490729E-02  0.2101537      0.2111725    
   36.58840      2.7331069E-02  0.2127051      0.2170318    
   35.46343      2.8198060E-02  0.2282365      0.2246498    
   34.37305      2.9092560E-02  0.2330078      0.2293646    
   33.31620      3.0015431E-02  0.2268496      0.2281822    
   32.29184      3.0967580E-02  0.2246893      0.2248793    
   31.29897      3.1949930E-02  0.2230991      0.2258418    
   30.33664      3.2963444E-02  0.2297369      0.2299962    
   29.40389      3.4009106E-02  0.2371525      0.2338273    
   28.49982      3.5087943E-02  0.2345924      0.2334463    
   27.62355      3.6201000E-02  0.2285940      0.2324591    
   26.77422      3.7349366E-02  0.2341909      0.2364471    
   25.95100      3.8534161E-02  0.2465563      0.2413172    
   25.15310      3.9756540E-02  0.2432043      0.2451601    
   24.37972      4.1017693E-02  0.2457196      0.2459339    
   23.63013      4.2318851E-02  0.2466689      0.2496095    
   22.90358      4.3661289E-02  0.2481430      0.2505431    
   22.19938      4.5046311E-02  0.2579065      0.2521153    
   21.51682      4.6475261E-02  0.2542777      0.2541107    
   20.85525      4.7949549E-02  0.2535803      0.2563524    
   20.21403      4.9470600E-02  0.2566460      0.2616710    
   19.59251      5.1039908E-02  0.2593514      0.2704732    
   18.99011      5.2658990E-02  0.2844997      0.2824371    
   18.40623      5.4329433E-02  0.2982885      0.3001321    
   17.84030      5.6052871E-02  0.3134002      0.3225514    
   17.29177      5.7830978E-02  0.3451205      0.3451738    
   16.76011      5.9665482E-02  0.3714481      0.3675546    
   16.24479      6.1558187E-02  0.3976116      0.3791811    
   15.74532      6.3510932E-02  0.3820322      0.3773334    
   15.26120      6.5525629E-02  0.3957149      0.3698395    
   14.79198      6.7604221E-02  0.3831597      0.3641641    
   14.33717      6.9748759E-02  0.3340337      0.3575343    
   13.89635      7.1961328E-02  0.3248766      0.3531708    
   13.46909      7.4244082E-02  0.3317196      0.3504845    
   13.05496      7.6599240E-02  0.3512037      0.3548116    
   12.65356      7.9029121E-02  0.3514872      0.3776622    
   12.26451      8.1536077E-02  0.3769113      0.3957468    
   11.88742      8.4122561E-02  0.4134492      0.4189659    
   11.52192      8.6791091E-02  0.4235851      0.4485728    
   11.16766      8.9544266E-02  0.4480649      0.4710229    
   10.82429      9.2384785E-02  0.4695536      0.5037650    
   10.49148      9.5315412E-02  0.5174726      0.5301297    
   10.16891      9.8338999E-02  0.5880588      0.5670127    
   9.856246      0.1014585      0.6506240      0.5879549    
   9.553200      0.1046770      0.6461661      0.5979457    
   9.259472      0.1079975      0.6141938      0.6137722    
   8.974774      0.1114234      0.6325548      0.6248640    
   8.698831      0.1149580      0.6798537      0.6102168    
   8.431372      0.1186047      0.6330072      0.6058447    
   8.172135      0.1223670      0.5479721      0.5978537    
   7.920870      0.1262487      0.6278186      0.5912346    
   7.677330      0.1302536      0.6283907      0.5867679    
   7.441278      0.1343855      0.5677040      0.5782961    
   7.212485      0.1386485      0.5062574      0.5755813    
   6.990726      0.1430467      0.5355945      0.5645475    
   6.775784      0.1475844      0.5547324      0.5545908    
   6.567452      0.1522661      0.5667363      0.5540622    
   6.365525      0.1570962      0.5605931      0.5477638    
   6.169807      0.1620796      0.5395642      0.5460082    
   5.980107      0.1672211      0.5696259      0.5660297    
   5.796239      0.1725257      0.5402871      0.5801550    
   5.618024      0.1779985      0.5253819      0.5978237    
   5.445289      0.1836450      0.5294085      0.6244304    
   5.277865      0.1894706      0.5187947      0.6326049    
   5.115589      0.1954809      0.5400446      0.6421121    
   4.958302      0.2016820      0.5333416      0.6412585    
   4.805851      0.2080797      0.6020580      0.6378136    
   4.658087      0.2146804      0.6464296      0.6212517    
   4.514867      0.2214905      0.7859510      0.6124664    
   4.376050      0.2285166      0.8078346      0.5960107    
   4.241501      0.2357656      0.8066263      0.5876898    
   4.111090      0.2432445      0.8231514      0.5694477    
   3.984688      0.2509607      0.7891864      0.5486277    
   3.862172      0.2589217      0.7797460      0.5379676    
   3.743424      0.2671351      0.7225134      0.5180519    
   3.628326      0.2756092      0.6549666      0.5009003    
   3.516768      0.2843520      0.5496641      0.4909909    
   3.408639      0.2933722      0.4916952      0.4690222    
   3.303835      0.3026786      0.4173812      0.4449775    
   3.202253      0.3122801      0.4121968      0.4290960    
   3.103795      0.3221862      0.4279753      0.4093026    
   3.008364      0.3324066      0.4141768      0.3840076    
   2.915867      0.3429512      0.3894331      0.3725694    
   2.826214      0.3538303      0.3489078      0.3518140    
   2.739317      0.3650545      0.3424163      0.3327521    
   2.655093      0.3766347      0.3328438      0.3265283    
   2.573457      0.3885823      0.2977023      0.3091465    
   2.494333      0.4009089      0.2998753      0.2993039    
   2.417640      0.4136265      0.2522425      0.2801312    
   2.343306      0.4267475      0.2716173      0.2643344    
   2.271257      0.4402848      0.2474225      0.2578222    
   2.201424      0.4542515      0.2698680      0.2472060    
   2.133738      0.4686611      0.2688401      0.2449453    
   2.068133      0.4835280      0.2526722      0.2323481    
   2.004544      0.4988664      0.2037297      0.2206186    
   1.942912      0.5146915      0.1615403      0.2145541    
   1.883174      0.5310184      0.1593786      0.2019653    
   1.825273      0.5478634      0.1663172      0.1892198    
   1.769152      0.5652427      0.1749135      0.1741664    
   1.714756      0.5831733      0.1909534      0.1620694    
   1.662033      0.6016726      0.2051069      0.1452122    
   1.610931      0.6207589      0.1974417      0.1296087    
   1.561401      0.6404505      0.1692643      0.1222757    
   1.513393      0.6607669      0.1406646      0.1222757    
   1.466861      0.6817277      0.1629491      0.1195977    
   1.421760      0.7033534      0.1818555      0.1195977    
   1.378046      0.7256652      0.1945503      0.1170993    
   1.335676      0.7486846      0.1971478      0.1170993    
   1.294608      0.7724344      0.2131952      0.1149328    
   1.254804      0.7969375      0.2018287      0.1149328    
   1.216223      0.8222179      0.1962912      0.1127868    
   1.178828      0.8483002      0.2140385      0.1127868    
   1.142583      0.8752099      0.2152435      0.1106910    
   1.107453      0.9029732      0.2043976      0.1106910    
   1.073402      0.9316174      0.1848607      0.1088928    
   1.040399      0.9611701      0.1608323      0.1088928    
   1.008410      0.9916603      0.1388284      0.1088928    
  0.9774047       1.023118      0.1553811      0.1070386    
  0.9473529       1.055573      0.1669994      0.1070386    
  0.9182250       1.089058      0.1642983      0.1070386    
  0.8899927       1.123605      0.1561923      0.1056150    
  0.8626285       1.159248      0.1454362      0.1056150    
  0.8361056       1.196021      0.1296158      0.1039715    
  0.8103982       1.233961      0.1468693      0.1039715    
  0.7854812       1.273105      0.1844022      0.1039715    
  0.7613303       1.313490      0.2135025      0.1025369    
  0.7379220       1.355157      0.2272609      0.1025369    
  0.7152334       1.398145      0.2347329      0.1025369    
  0.6932424       1.442497      0.2288071      0.1008467    
  0.6719276       1.488256      0.2037013      0.1008467    
  0.6512681       1.535466      0.1825107      0.1008467    
  0.6312438       1.584174      0.1743237      9.9132515E-02
  0.6118352       1.634427      0.1701444      9.9132515E-02
  0.5930234       1.686274      0.1614089      9.9132515E-02
  0.5747899       1.739766      0.1406952      9.9132515E-02
  0.5571171       1.794955      0.1262334      9.7549632E-02
  0.5399877       1.851894      0.1249609      9.7549632E-02
  0.5233849       1.910640      0.1324874      9.7549632E-02
  0.5072926       1.971249      0.1357977      9.7549632E-02
  0.4916950       2.033781      0.1303932      9.6443594E-02
  0.4765771       2.098296      0.1267312      9.6443594E-02
  0.4619240       2.164858      0.1192739      9.6443594E-02
  0.4477214       2.233532      0.1058137      9.6443594E-02
  0.4339555       2.304384      8.7984294E-02  9.5758371E-02
  0.4206128       2.377483      7.3094331E-02  9.5758371E-02
  0.4076804       2.452902      5.8642246E-02  9.5758371E-02
  0.3951457       2.530712      4.7012415E-02  9.5758371E-02
  0.3829963       2.610991      4.3672528E-02  9.5081553E-02
  0.3712204       2.693817      4.4626452E-02  9.5081553E-02
  0.3598067       2.779270      4.3552913E-02  9.5081553E-02
  0.3487439       2.867434      4.4026826E-02  9.5081553E-02
  0.3380212       2.958395      4.2136006E-02  9.5081553E-02
  0.3276282       3.052241      3.7862532E-02  9.5081553E-02
  0.3175547       3.149064      3.2445747E-02  9.4315581E-02
  0.3077910       3.248958      2.7973339E-02  9.4315581E-02
  0.2983274       3.352021      2.5730159E-02  9.4315581E-02
  0.2891549       3.458354      2.5050186E-02  9.4315581E-02
  0.2802644       3.568060      2.4599230E-02  9.4315581E-02
  0.2716472       3.681245      2.3414509E-02  9.4315581E-02
  0.2632950       3.798022      2.1802874E-02  9.3439519E-02
  0.2551996       3.918502      2.3816857E-02  9.3439519E-02
  0.2473530       4.042805      2.5254123E-02  9.3439519E-02
  0.2397478       4.171050      2.6208272E-02  9.3439519E-02
  0.2323764       4.303364      2.5465649E-02  9.3439519E-02
  0.2252316       4.439875      2.3342872E-02  9.3439519E-02
  0.2183065       4.580716      2.0830974E-02  9.3439519E-02
  0.2115943       4.726026      1.8203447E-02  9.2367940E-02
  0.2050885       4.875944      1.5821809E-02  9.2367940E-02
  0.1987827       5.030619      1.3415131E-02  9.2367940E-02
  0.1926708       5.190199      1.0407947E-02  9.2367940E-02
  0.1867469       5.354843      9.9330805E-03  9.2367940E-02
  0.1810050       5.524709      1.0299483E-02  9.2367940E-02
  0.1754397       5.699963      1.0219759E-02  9.2367940E-02
  0.1700456       5.880777      9.7914236E-03  9.2367940E-02
  0.1648172       6.067327      9.2240525E-03  9.2367940E-02
  0.1597497       6.259794      9.1212606E-03  9.1115281E-02
  0.1548379       6.458367      9.0152211E-03  9.1115281E-02
  0.1500772       6.663239      8.7557063E-03  9.1115281E-02
  0.1454628       6.874609      7.9556024E-03  9.1115281E-02
  0.1409903       7.092686      6.9012488E-03  9.1115281E-02
  0.1366553       7.317679      6.1515765E-03  9.1115281E-02
  0.1324537       7.549810      5.6871967E-03  9.1115281E-02
  0.1283812       7.789305      4.9842224E-03  9.1115281E-02
  0.1244339       8.036396      4.1720155E-03  9.1115281E-02
  0.1206080       8.291327      3.6203139E-03  9.1115281E-02
  0.1168997       8.554343      3.4271295E-03  9.1115281E-02
  0.1133054       8.825704      3.1833365E-03  9.1115281E-02
  0.1098217       9.105672      2.9158609E-03  8.9920603E-02
  0.1064450       9.394522      2.6468311E-03  8.9920603E-02
  0.1031722       9.692533      2.3796470E-03  8.9920603E-02
  0.1000000       10.00000      2.2342459E-03  8.9920603E-02
