 Calculated PSA for the frequency range: 
 Station:   A54 
 Component: HHZ
  0.1000000      Hz and    50.00000      Hz
         200 frequencies distributed logarithmically
 Oscillator damping is   5.000000     % of critical
  Freq.(Hz)       Period(s)      PSA(cm/s^2)  Smooth PSA(cm/s^2)
   50.00000      1.9999998E-02  0.3424186      0.3424186    
   48.46267      2.0634437E-02  0.3429807      0.3433350    
   46.97261      2.1289000E-02  0.3436892      0.3438616    
   45.52837      2.1964328E-02  0.3449148      0.3449174    
   44.12852      2.2661081E-02  0.3461483      0.3459918    
   42.77172      2.3379933E-02  0.3469123      0.3472256    
   41.45663      2.4121592E-02  0.3486162      0.3490047    
   40.18199      2.4886772E-02  0.3514856      0.3502732    
   38.94653      2.5676232E-02  0.3507178      0.3498364    
   37.74905      2.6490729E-02  0.3473058      0.3475763    
   36.58840      2.7331069E-02  0.3447054      0.3464386    
   35.46343      2.8198060E-02  0.3473045      0.3479491    
   34.37305      2.9092560E-02  0.3518375      0.3510335    
   33.31620      3.0015431E-02  0.3539585      0.3504391    
   32.29184      3.0967580E-02  0.3455212      0.3464413    
   31.29897      3.1949930E-02  0.3398441      0.3432308    
   30.33664      3.2963444E-02  0.3443272      0.3478928    
   29.40389      3.4009106E-02  0.3595071      0.3557284    
   28.49982      3.5087943E-02  0.3633508      0.3686505    
   27.62355      3.6201000E-02  0.3830936      0.3809068    
   26.77422      3.7349366E-02  0.3962761      0.3945863    
   25.95100      3.8534161E-02  0.4043892      0.4036803    
   25.15310      3.9756540E-02  0.4103757      0.4091198    
   24.37972      4.1017693E-02  0.4125947      0.4152200    
   23.63013      4.2318851E-02  0.4125280      0.4254710    
   22.90358      4.3661289E-02  0.4253814      0.4358211    
   22.19938      4.5046311E-02  0.4513800      0.4483667    
   21.51682      4.6475261E-02  0.4772214      0.4587623    
   20.85525      4.7949549E-02  0.4753229      0.4622242    
   20.21403      4.9470600E-02  0.4645055      0.4564310    
   19.59251      5.1039908E-02  0.4426910      0.4469110    
   18.99011      5.2658990E-02  0.4224143      0.4459477    
   18.40623      5.4329433E-02  0.4296217      0.4546781    
   17.84030      5.6052871E-02  0.4705059      0.4653215    
   17.29177      5.7830978E-02  0.5081579      0.4769855    
   16.76011      5.9665482E-02  0.4959078      0.4844981    
   16.24479      6.1558187E-02  0.4807341      0.4950676    
   15.74532      6.3510932E-02  0.4759921      0.4988151    
   15.26120      6.5525629E-02  0.4756904      0.4997766    
   14.79198      6.7604221E-02  0.5339235      0.4975278    
   14.33717      6.9748759E-02  0.5306425      0.5013474    
   13.89635      7.1961328E-02  0.5055457      0.5066781    
   13.46909      7.4244082E-02  0.4801663      0.5110984    
   13.05496      7.6599240E-02  0.5074710      0.5095542    
   12.65356      7.9029121E-02  0.5133070      0.5296835    
   12.26451      8.1536077E-02  0.5066328      0.5395741    
   11.88742      8.4122561E-02  0.5231134      0.5506692    
   11.52192      8.6791091E-02  0.5810625      0.5636716    
   11.16766      8.9544266E-02  0.6201693      0.5664320    
   10.82429      9.2384785E-02  0.5846701      0.5745609    
   10.49148      9.5315412E-02  0.5689273      0.5864945    
   10.16891      9.8338999E-02  0.6114902      0.6323996    
   9.856246      0.1014585      0.5885153      0.6683385    
   9.553200      0.1046770      0.5864682      0.6964818    
   9.259472      0.1079975      0.6140348      0.7235628    
   8.974774      0.1114234      0.7315070      0.7484226    
   8.698831      0.1149580      0.8371515      0.7471914    
   8.431372      0.1186047      0.9404520      0.7647195    
   8.172135      0.1223670      0.9016023      0.7906030    
   7.920870      0.1262487      0.8554795      0.8188879    
   7.677330      0.1302536      0.8175251      0.8449171    
   7.441278      0.1343855      0.7277293      0.8724868    
   7.212485      0.1386485      0.7543424      0.8882827    
   6.990726      0.1430467      0.8218268      0.9183351    
   6.775784      0.1475844      0.8991175      0.9964287    
   6.567452      0.1522661      0.9258861       1.039201    
   6.365525      0.1570962      0.9263853       1.073441    
   6.169807      0.1620796      0.9517248       1.100009    
   5.980107      0.1672211      0.9831068       1.103688    
   5.796239      0.1725257       1.093629       1.112265    
   5.618024      0.1779985       1.257886       1.111548    
   5.445289      0.1836450       1.451335       1.082632    
   5.277865      0.1894706       1.578856       1.053641    
   5.115589      0.1954809       1.543182       1.008755    
   4.958302      0.2016820       1.369079      0.9928681    
   4.805851      0.2080797       1.216045      0.9786378    
   4.658087      0.2146804       1.198628      0.9483914    
   4.514867      0.2214905       1.063933      0.9329466    
   4.376050      0.2285166      0.8735355      0.9015869    
   4.241501      0.2357656      0.7421666      0.8768653    
   4.111090      0.2432445      0.7462271      0.8249364    
   3.984688      0.2509607      0.6666588      0.7872155    
   3.862172      0.2589217      0.5318003      0.7415434    
   3.743424      0.2671351      0.4996769      0.6732997    
   3.628326      0.2756092      0.5553515      0.6411780    
   3.516768      0.2843520      0.6081539      0.5938774    
   3.408639      0.2933722      0.6417810      0.5388113    
   3.303835      0.3026786      0.6583863      0.4919938    
   3.202253      0.3122801      0.6368012      0.4707898    
   3.103795      0.3221862      0.6086046      0.4315682    
   3.008364      0.3324066      0.6026270      0.3980855    
   2.915867      0.3429512      0.5921548      0.3853447    
   2.826214      0.3538303      0.5250331      0.3616151    
   2.739317      0.3650545      0.4640866      0.3429120    
   2.655093      0.3766347      0.4243705      0.3352133    
   2.573457      0.3885823      0.3740751      0.3179003    
   2.494333      0.4009089      0.2950567      0.3063580    
   2.417640      0.4136265      0.2638596      0.2875324    
   2.343306      0.4267475      0.2454352      0.2750727    
   2.271257      0.4402848      0.2323839      0.2638844    
   2.201424      0.4542515      0.2173825      0.2503426    
   2.133738      0.4686611      0.1976871      0.2431034    
   2.068133      0.4835280      0.1714661      0.2270098    
   2.004544      0.4988664      0.1628252      0.2104467    
   1.942912      0.5146915      0.1481474      0.2002745    
   1.883174      0.5310184      0.1531956      0.1847675    
   1.825273      0.5478634      0.1503172      0.1721234    
   1.769152      0.5652427      0.1389961      0.1543647    
   1.714756      0.5831733      0.1452623      0.1433293    
   1.662033      0.6016726      0.1631552      0.1257610    
   1.610931      0.6207589      0.1727274      0.1122834    
   1.561401      0.6404505      0.1607150      0.1037920    
   1.513393      0.6607669      0.1628917      0.1037920    
   1.466861      0.6817277      0.1598883      9.9215500E-02
   1.421760      0.7033534      0.1648704      9.9215500E-02
   1.378046      0.7256652      0.1762985      9.4651252E-02
   1.335676      0.7486846      0.1808568      9.4651252E-02
   1.294608      0.7724344      0.1846945      9.0628989E-02
   1.254804      0.7969375      0.1896680      9.0628989E-02
   1.216223      0.8222179      0.1782558      8.7105803E-02
   1.178828      0.8483002      0.1919205      8.7105803E-02
   1.142583      0.8752099      0.1826261      8.3893761E-02
   1.107453      0.9029732      0.1716696      8.3893761E-02
   1.073402      0.9316174      0.1571092      8.1103556E-02
   1.040399      0.9611701      0.1377658      8.1103556E-02
   1.008410      0.9916603      0.1394231      8.1103556E-02
  0.9774047       1.023118      0.1449764      7.9026341E-02
  0.9473529       1.055573      0.1305835      7.9026341E-02
  0.9182250       1.089058      0.1190129      7.9026341E-02
  0.8899927       1.123605      0.1139965      7.7214256E-02
  0.8626285       1.159248      0.1072675      7.7214256E-02
  0.8361056       1.196021      9.2014357E-02  7.5548701E-02
  0.8103982       1.233961      8.2419433E-02  7.5548701E-02
  0.7854812       1.273105      8.0181450E-02  7.5548701E-02
  0.7613303       1.313490      8.9013442E-02  7.3980354E-02
  0.7379220       1.355157      0.1019832      7.3980354E-02
  0.7152334       1.398145      0.1187324      7.3980354E-02
  0.6932424       1.442497      0.1281776      7.2531842E-02
  0.6719276       1.488256      0.1194750      7.2531842E-02
  0.6512681       1.535466      9.7981416E-02  7.2531842E-02
  0.6312438       1.584174      8.2831956E-02  7.1254753E-02
  0.6118352       1.634427      8.0226555E-02  7.1254753E-02
  0.5930234       1.686274      8.4425867E-02  7.1254753E-02
  0.5747899       1.739766      8.7653875E-02  7.1254753E-02
  0.5571171       1.794955      8.4583685E-02  7.0221640E-02
  0.5399877       1.851894      6.9441952E-02  7.0221640E-02
  0.5233849       1.910640      5.6855246E-02  7.0221640E-02
  0.5072926       1.971249      5.1388059E-02  7.0221640E-02
  0.4916950       2.033781      4.5050189E-02  6.9257021E-02
  0.4765771       2.098296      4.2950090E-02  6.9257021E-02
  0.4619240       2.164858      4.2394448E-02  6.9257021E-02
  0.4477214       2.233532      4.0025938E-02  6.9257021E-02
  0.4339555       2.304384      4.4686157E-02  6.8426594E-02
  0.4206128       2.377483      4.8647836E-02  6.8426594E-02
  0.4076804       2.452902      4.3268226E-02  6.8426594E-02
  0.3951457       2.530712      3.6025859E-02  6.8426594E-02
  0.3829963       2.610991      3.2685693E-02  6.7524798E-02
  0.3712204       2.693817      2.9637082E-02  6.7524798E-02
  0.3598067       2.779270      2.6160626E-02  6.7524798E-02
  0.3487439       2.867434      2.3925249E-02  6.7524798E-02
  0.3380212       2.958395      2.3938142E-02  6.7524798E-02
  0.3276282       3.052241      2.3944581E-02  6.7524798E-02
  0.3175547       3.149064      2.1651188E-02  6.6634558E-02
  0.3077910       3.248958      1.8309493E-02  6.6634558E-02
  0.2983274       3.352021      1.6179126E-02  6.6634558E-02
  0.2891549       3.458354      1.4945718E-02  6.6634558E-02
  0.2802644       3.568060      1.3348069E-02  6.6634558E-02
  0.2716472       3.681245      1.3875790E-02  6.6634558E-02
  0.2632950       3.798022      1.4642272E-02  6.5848015E-02
  0.2551996       3.918502      1.5283600E-02  6.5848015E-02
  0.2473530       4.042805      1.5862236E-02  6.5848015E-02
  0.2397478       4.171050      1.8073862E-02  6.5848015E-02
  0.2323764       4.303364      1.8954158E-02  6.5848015E-02
  0.2252316       4.439875      1.9188285E-02  6.5848015E-02
  0.2183065       4.580716      1.8466352E-02  6.5848015E-02
  0.2115943       4.726026      1.7657891E-02  6.4975336E-02
  0.2050885       4.875944      1.6928542E-02  6.4975336E-02
  0.1987827       5.030619      1.5821306E-02  6.4975336E-02
  0.1926708       5.190199      1.4194358E-02  6.4975336E-02
  0.1867469       5.354843      1.2514418E-02  6.4975336E-02
  0.1810050       5.524709      1.0783739E-02  6.4975336E-02
  0.1754397       5.699963      9.4715944E-03  6.4975336E-02
  0.1700456       5.880777      8.7221302E-03  6.4975336E-02
  0.1648172       6.067327      8.3617540E-03  6.4975336E-02
  0.1597497       6.259794      7.9545975E-03  6.3884452E-02
  0.1548379       6.458367      7.3956656E-03  6.3884452E-02
  0.1500772       6.663239      7.1645067E-03  6.3884452E-02
  0.1454628       6.874609      7.0557795E-03  6.3884452E-02
  0.1409903       7.092686      6.7169326E-03  6.3884452E-02
  0.1366553       7.317679      6.1312425E-03  6.3884452E-02
  0.1324537       7.549810      5.4158680E-03  6.3884452E-02
  0.1283812       7.789305      4.7090491E-03  6.3884452E-02
  0.1244339       8.036396      4.1465899E-03  6.3884452E-02
  0.1206080       8.291327      3.6783661E-03  6.3884452E-02
  0.1168997       8.554343      3.4143608E-03  6.3884452E-02
  0.1133054       8.825704      3.2437430E-03  6.3884452E-02
  0.1098217       9.105672      3.1065557E-03  6.2661491E-02
  0.1064450       9.394522      2.9584698E-03  6.2661491E-02
  0.1031722       9.692533      2.7766244E-03  6.2661491E-02
  0.1000000       10.00000      2.5530520E-03  6.2661491E-02
